time /s	I /mA	E /mV	Q /mC	An In 1	An In 2	Rs	Cs	Zab	Phase
7497.400	3.087	3883.539	-835306.396	-9.053E-05	9.843E-04
7497.800	3.005	3883.550	-835305.176	-9.722E-05	1.101E-03
7498.600	2.917	3883.518	-835302.795	-1.069E-04	1.094E-03
7499.600	2.766	3883.529	-835299.988	-9.418E-05	1.064E-03
7500.600	2.650	3883.546	-835297.241	-9.782E-05	1.080E-03
7501.600	2.635	3883.539	-835294.495	-9.296E-05	9.527E-04
7502.600	2.728	3883.530	-835291.748	-8.567E-05	9.558E-04
7503.600	2.766	3883.536	-835289.001	-1.027E-04	1.001E-03
7504.600	2.776	3883.578	-835286.255	-1.051E-04	9.527E-04
7505.600	2.718	3883.604	-835283.508	-8.810E-05	9.770E-04
7506.600	2.825	3883.590	-835280.762	-1.185E-04	1.000E-03
7507.600	2.742	3883.550	-835278.076	-9.296E-05	1.027E-03
7508.600	2.625	3883.569	-835275.391	-1.069E-04	1.117E-03
7509.600	2.587	3883.572	-835272.705	-9.357E-05	1.005E-03
7510.600	2.635	3883.615	-835269.958	-9.904E-05	1.009E-03
7511.600	2.839	3883.614	-835267.273	-9.114E-05	1.065E-03
7512.600	2.849	3883.603	-835264.526	-9.053E-05	9.758E-04
7513.600	2.903	3883.628	-835261.658	-8.263E-05	1.071E-03
7514.600	2.835	3883.609	-835258.911	-9.114E-05	9.606E-04
7515.600	2.737	3883.632	-835256.104	-8.020E-05	9.697E-04
7516.600	2.752	3883.626	-835253.357	-9.235E-05	1.019E-03
7517.600	2.650	3883.595	-835250.671	-1.069E-04	9.169E-04
7518.600	2.577	3883.652	-835247.986	-1.051E-04	8.573E-04
7519.600	2.548	3883.632	-835245.300	-1.009E-04	9.977E-04
7520.600	2.650	3883.651	-835242.615	-1.118E-04	1.072E-03
7521.600	2.669	3883.654	-835239.929	-8.263E-05	1.077E-03
7522.600	2.596	3883.659	-835237.183	-1.009E-04	1.052E-03
7523.600	2.708	3883.665	-835234.436	-1.088E-04	1.009E-03
7524.600	2.757	3883.645	-835231.689	-9.539E-05	9.369E-04
7525.600	2.781	3883.664	-835228.943	-8.871E-05	1.043E-03
7526.600	2.728	3883.620	-835226.196	-1.088E-04	1.089E-03
7527.600	2.601	3883.677	-835223.450	-9.235E-05	1.041E-03
7528.600	2.703	3883.681	-835220.764	-1.124E-04	1.049E-03
7529.600	2.762	3883.682	-835218.079	-8.689E-05	1.006E-03
7530.600	2.703	3883.703	-835215.332	-9.600E-05	1.086E-03
7531.600	2.771	3883.662	-835212.585	-9.661E-05	9.199E-04
7532.600	2.684	3883.691	-835209.839	-1.051E-04	9.630E-04
7533.600	2.810	3883.654	-835207.092	-9.965E-05	1.190E-03
7534.600	2.869	3883.705	-835204.346	-9.782E-05	1.102E-03
7535.600	2.708	3883.683	-835201.660	-9.539E-05	8.865E-04
7536.600	2.820	3883.690	-835198.914	-9.661E-05	9.849E-04
7537.600	2.800	3883.717	-835196.289	-1.009E-04	1.071E-03
7538.600	2.713	3883.724	-835193.604	-9.175E-05	1.075E-03
7539.600	2.582	3883.698	-835190.918	-1.009E-04	9.284E-04
7540.600	2.674	3883.722	-835188.171	-1.003E-04	9.442E-04
7541.600	2.762	3883.688	-835185.425	-1.082E-04	1.012E-03
7542.600	2.659	3883.692	-835182.617	-1.094E-04	9.333E-04
7543.600	2.854	3883.730	-835179.871	-1.069E-04	1.082E-03
7544.600	2.907	3883.734	-835177.063	-9.479E-05	9.813E-04
7545.600	2.810	3883.746	-835174.377	-1.003E-04	1.002E-03
7546.600	2.718	3883.736	-835171.631	-1.033E-04	9.612E-04
7547.600	2.762	3883.725	-835168.945	-1.027E-04	9.284E-04
7548.600	2.766	3883.736	-835166.199	-1.246E-04	1.087E-03
7549.600	2.888	3883.747	-835163.452	-1.021E-04	9.023E-04
7550.600	2.825	3883.750	-835160.706	-9.782E-05	9.466E-04
7551.600	2.679	3883.758	-835157.959	-1.094E-04	9.333E-04
7552.600	2.835	3883.730	-835155.029	-8.689E-05	1.092E-03
7553.600	2.878	3883.792	-835152.222	-1.075E-04	1.173E-03
7554.600	2.844	3883.742	-835149.475	-1.015E-04	1.106E-03
7555.600	2.766	3883.770	-835146.729	-1.057E-04	1.049E-03
7556.600	2.864	3883.787	-835143.982	-9.600E-05	1.111E-03
7557.600	2.742	3883.793	-835141.235	-9.843E-05	9.485E-04
7558.600	2.747	3883.744	-835138.489	-8.689E-05	9.922E-04
7559.600	2.766	3883.765	-835135.742	-1.033E-04	1.109E-03
7560.600	3.014	3883.791	-835132.874	-9.904E-05	9.564E-04
7561.600	2.864	3883.781	-835130.127	-8.749E-05	1.118E-03
7562.600	2.985	3883.797	-835127.319	-8.628E-05	9.971E-04
7563.600	2.762	3883.785	-835124.390	-9.479E-05	1.015E-03
7564.600	2.849	3883.758	-835121.582	-1.021E-04	1.074E-03
7565.600	2.810	3883.759	-835118.835	-1.015E-04	9.934E-04
7566.600	2.883	3883.793	-835116.089	-9.904E-05	9.794E-04
7567.600	2.747	3883.802	-835113.342	-9.843E-05	9.618E-04
7568.600	2.912	3883.765	-835110.596	-1.033E-04	9.849E-04
7569.600	2.854	3883.808	-835107.727	-9.661E-05	9.643E-04
7570.600	2.762	3883.778	-835104.919	-9.539E-05	9.940E-04
7571.600	2.689	3883.812	-835102.112	-1.021E-04	9.254E-04
7572.600	2.878	3883.824	-835099.365	-8.385E-05	1.001E-03
7573.600	2.766	3883.816	-835096.619	-1.015E-04	9.764E-04
7574.600	3.005	3883.822	-835093.689	-1.197E-04	1.007E-03
7575.600	2.946	3883.817	-835090.881	-1.027E-04	1.090E-03
7576.600	2.844	3883.793	-835088.135	-1.088E-04	9.940E-04
7577.600	2.786	3883.822	-835085.266	-1.015E-04	1.046E-03
7578.600	2.800	3883.801	-835082.520	-9.053E-05	9.904E-04
7579.600	2.883	3883.815	-835079.773	-1.082E-04	1.049E-03
7580.600	2.713	3883.837	-835077.026	-8.628E-05	9.952E-04
7581.600	2.728	3883.798	-835074.280	-9.479E-05	1.109E-03
7582.600	2.810	3883.809	-835071.472	-9.600E-05	9.509E-04
7583.600	2.810	3883.838	-835068.726	-8.871E-05	1.088E-03
7584.600	2.684	3883.801	-835065.979	-1.033E-04	9.570E-04
7585.600	2.815	3883.830	-835063.232	-1.088E-04	1.077E-03
7586.600	2.708	3883.822	-835060.486	-9.782E-05	9.242E-04
7587.600	2.781	3883.830	-835057.739	-9.479E-05	1.034E-03
7588.600	2.776	3883.780	-835054.993	-8.324E-05	1.080E-03
7589.600	2.669	3883.785	-835052.307	-9.296E-05	1.055E-03
7590.600	2.640	3883.821	-835049.561	-8.385E-05	1.104E-03
7591.600	2.630	3883.834	-835046.875	-9.479E-05	1.066E-03
7592.600	2.694	3883.818	-835044.128	-1.021E-04	9.886E-04
7593.600	2.635	3883.812	-835041.382	-8.689E-05	9.503E-04
7594.600	2.791	3883.856	-835038.635	-1.051E-04	9.722E-04
7595.600	2.698	3883.851	-835035.950	-8.263E-05	9.983E-04
7596.600	2.591	3883.856	-835033.325	-1.063E-04	1.042E-03
7597.600	2.674	3883.835	-835030.579	-1.063E-04	1.012E-03
7598.600	2.596	3883.851	-835027.832	-8.871E-05	1.063E-03
7599.600	2.708	3883.826	-835025.085	-8.142E-05	9.485E-04
7600.600	2.460	3883.848	-835022.400	-8.810E-05	9.612E-04
7601.600	2.557	3883.825	-835019.714	-1.051E-04	8.816E-04
7602.600	2.616	3883.878	-835016.968	-9.235E-05	1.121E-03
7603.600	2.635	3883.860	-835014.221	-9.782E-05	1.070E-03
7604.600	2.766	3883.897	-835011.475	-9.722E-05	8.713E-04
7605.600	2.698	3883.840	-835008.728	-8.932E-05	9.284E-04
7606.600	2.684	3883.842	-835006.042	-1.027E-04	1.040E-03
7607.600	2.805	3883.879	-835003.296	-1.027E-04	9.606E-04
7608.600	2.791	3883.852	-835000.549	-9.539E-05	1.077E-03
7609.600	2.771	3883.879	-834997.925	-9.175E-05	1.060E-03
7610.600	2.601	3883.877	-834995.178	-9.539E-05	9.697E-04
7611.600	2.664	3883.864	-834992.432	-9.661E-05	1.130E-03
7612.600	2.553	3883.831	-834989.929	-9.904E-05	1.095E-03
7613.600	2.630	3883.903	-834987.244	-1.069E-04	9.697E-04
7614.600	2.625	3883.887	-834984.558	-8.749E-05	1.004E-03
7615.600	2.591	3883.857	-834982.056	-9.965E-05	1.120E-03
7616.600	2.825	3883.845	-834979.309	-8.871E-05	1.005E-03
7617.200	2.800	3883.867	-834977.661	-9.904E-05	1.038E-03
7617.400	252.480	3900.396	-834927.185	-1.033E-04	1.069E-03
7617.800	252.655	3900.691	-834826.172	-1.033E-04	9.679E-04
7618.600	252.821	3901.127	-834624.023	-9.782E-05	1.017E-03
7619.600	252.573	3901.505	-834371.399	-7.534E-05	9.618E-04
7620.600	252.777	3901.856	-834118.774	-1.069E-04	9.837E-04
7621.600	252.665	3902.225	-833866.089	-1.209E-04	1.026E-03
7622.600	252.553	3902.479	-833613.464	-1.100E-04	1.047E-03
7623.600	252.611	3902.761	-833360.840	-9.661E-05	9.965E-04
7624.600	252.723	3902.991	-833108.215	-1.197E-04	9.770E-04
7625.600	252.675	3903.249	-832855.591	-1.027E-04	9.454E-04
7626.600	252.757	3903.531	-832602.905	-1.033E-04	9.959E-04
7627.600	252.646	3903.704	-832350.159	-8.871E-05	1.002E-03
7628.600	252.636	3903.973	-832097.473	-9.661E-05	1.018E-03
7629.600	253.015	3904.145	-831844.666	-8.992E-05	9.327E-04
7630.600	252.650	3904.387	-831591.980	-9.843E-05	1.024E-03
7631.600	252.825	3904.537	-831339.294	-1.045E-04	1.007E-03
7632.600	252.704	3904.753	-831086.609	-9.782E-05	1.147E-03
7633.600	252.942	3904.959	-830833.801	-1.039E-04	1.001E-03
7634.600	252.855	3905.095	-830580.994	-1.136E-04	1.111E-03
7635.600	252.718	3905.281	-830328.125	-1.033E-04	1.046E-03
7636.600	252.928	3905.451	-830075.256	-1.057E-04	9.849E-04
7637.600	252.845	3905.555	-829822.327	-8.932E-05	1.120E-03
7638.600	252.996	3905.772	-829569.397	-1.118E-04	1.086E-03
7639.600	252.704	3905.913	-829316.589	-1.142E-04	1.068E-03
7640.600	252.811	3906.074	-829063.843	-1.021E-04	1.004E-03
7641.600	252.840	3906.187	-828811.096	-1.021E-04	1.053E-03
7642.600	252.660	3906.335	-828558.289	-1.088E-04	1.113E-03
7643.600	252.694	3906.488	-828305.420	-1.088E-04	1.061E-03
7644.600	252.864	3906.632	-828052.673	-8.871E-05	1.001E-03
7645.600	252.825	3906.760	-827799.988	-1.039E-04	1.013E-03
7646.600	252.704	3906.874	-827547.180	-1.051E-04	1.017E-03
7647.600	252.845	3907.006	-827294.434	-1.057E-04	1.031E-03
7648.600	252.811	3907.140	-827041.748	-1.045E-04	1.051E-03
7649.600	252.825	3907.269	-826789.001	-1.112E-04	9.807E-04
7650.600	252.942	3907.342	-826536.194	-1.094E-04	9.843E-04
7651.600	252.879	3907.504	-826283.386	-9.965E-05	1.071E-03
7652.600	252.738	3907.644	-826030.640	-1.075E-04	9.156E-04
7653.600	252.801	3907.732	-825777.832	-1.142E-04	9.381E-04
7654.600	252.748	3907.854	-825525.085	-1.027E-04	1.013E-03
7655.600	252.752	3907.961	-825272.461	-1.045E-04	1.064E-03
7656.600	252.587	3908.051	-825019.653	-1.075E-04	9.697E-04
7657.600	252.884	3908.193	-824766.846	-9.053E-05	9.722E-04
7658.600	252.845	3908.258	-824514.038	-1.045E-04	9.570E-04
7659.600	252.709	3908.385	-824261.292	-1.003E-04	8.646E-04
7660.600	252.723	3908.481	-824008.606	-1.136E-04	9.843E-04
7661.600	252.680	3908.569	-823755.920	-1.057E-04	9.102E-04
7662.600	252.777	3908.643	-823503.174	-9.965E-05	1.133E-03
7663.600	252.787	3908.787	-823250.488	-1.027E-04	1.149E-03
7664.600	252.816	3908.883	-822997.742	-8.992E-05	1.093E-03
7665.600	252.811	3909.015	-822744.873	-9.114E-05	1.035E-03
7666.600	252.782	3909.040	-822492.004	-1.100E-04	9.564E-04
7667.600	252.748	3909.159	-822239.319	-8.932E-05	9.965E-04
7668.600	252.718	3909.277	-821986.572	-8.992E-05	1.096E-03
7669.600	252.772	3909.352	-821733.887	-9.600E-05	1.045E-03
7670.600	252.782	3909.456	-821481.201	-7.656E-05	1.065E-03
7671.600	252.752	3909.560	-821228.516	-9.539E-05	9.849E-04
7672.600	252.767	3909.645	-820975.769	-1.051E-04	9.794E-04
7673.600	252.757	3909.680	-820723.022	-1.100E-04	1.066E-03
7674.600	252.699	3909.838	-820470.337	-1.015E-04	9.904E-04
7675.600	253.020	3909.914	-820217.590	-9.357E-05	1.030E-03
7676.600	252.913	3909.965	-819964.722	-8.992E-05	8.950E-04
7677.600	252.675	3910.050	-819711.792	-1.106E-04	8.403E-04
7678.600	252.723	3910.148	-819459.106	-8.628E-05	1.116E-03
7679.600	252.675	3910.223	-819206.421	-9.296E-05	1.023E-03
7680.600	252.738	3910.355	-818953.735	-1.063E-04	9.934E-04
7681.600	252.825	3910.403	-818700.989	-1.288E-04	1.024E-03
7682.600	252.641	3910.486	-818448.364	-1.009E-04	9.576E-04
7683.600	252.893	3910.605	-818195.618	-1.039E-04	1.077E-03
7684.600	252.660	3910.642	-817942.871	-1.003E-04	1.055E-03
7685.600	252.621	3910.743	-817690.125	-8.628E-05	1.064E-03
7686.600	252.748	3910.832	-817437.439	-9.418E-05	9.873E-04
7687.600	252.689	3910.853	-817184.753	-1.033E-04	9.636E-04
7688.600	252.718	3910.986	-816932.068	-1.124E-04	1.055E-03
7689.600	252.743	3911.055	-816679.321	-1.003E-04	1.080E-03
7690.600	252.757	3911.152	-816426.636	-9.782E-05	1.090E-03
7691.600	252.757	3911.184	-816173.889	-1.069E-04	9.278E-04
7692.600	252.830	3911.264	-815921.143	-9.904E-05	1.092E-03
7693.600	252.889	3911.387	-815668.274	-1.027E-04	9.965E-04
7694.600	252.971	3911.471	-815415.405	-9.904E-05	1.058E-03
7695.600	252.709	3911.506	-815162.537	-1.009E-04	1.099E-03
7696.600	252.641	3911.618	-814909.790	-1.112E-04	1.008E-03
7697.600	252.757	3911.654	-814657.104	-1.033E-04	1.004E-03
7698.600	252.864	3911.766	-814404.297	-9.296E-05	9.278E-04
7699.600	252.728	3911.838	-814151.611	-1.033E-04	8.737E-04
7700.600	252.825	3911.887	-813898.804	-9.722E-05	1.012E-03
7701.600	252.733	3911.974	-813646.057	-1.033E-04	9.497E-04
7702.600	252.660	3912.031	-813393.311	-1.015E-04	1.131E-03
7703.600	252.971	3912.104	-813140.564	-9.661E-05	1.074E-03
7704.600	252.490	3912.176	-812887.817	-9.661E-05	1.002E-03
7705.600	252.782	3912.277	-812635.132	-1.221E-04	1.020E-03
7706.600	252.762	3912.356	-812382.446	-1.015E-04	9.825E-04
7707.600	252.918	3912.403	-812129.517	-1.015E-04	9.132E-04
7708.600	252.855	3912.484	-811876.587	-1.033E-04	9.873E-04
7709.600	252.631	3912.569	-811623.779	-1.021E-04	9.260E-04
7710.600	252.903	3912.630	-811371.033	-1.112E-04	9.813E-04
7711.600	252.704	3912.700	-811118.286	-9.661E-05	8.707E-04
7712.600	252.825	3912.790	-810865.601	-1.027E-04	1.032E-03
7713.600	252.757	3912.859	-810612.854	-9.235E-05	9.867E-04
7714.600	252.811	3912.890	-810360.107	-1.027E-04	9.752E-04
7715.600	252.923	3912.977	-810107.117	-1.003E-04	1.030E-03
7716.600	252.928	3913.054	-809854.187	-9.843E-05	1.104E-03
7717.600	252.898	3913.114	-809601.318	-1.082E-04	1.049E-03
7718.600	252.835	3913.200	-809348.450	-9.661E-05	1.106E-03
7719.600	252.821	3913.245	-809095.764	-9.722E-05	9.977E-04
7720.600	252.942	3913.326	-808842.957	-9.843E-05	1.140E-03
7721.600	252.850	3913.410	-808590.149	-1.069E-04	1.110E-03
7722.600	252.821	3913.486	-808337.402	-1.039E-04	1.023E-03
7723.600	252.816	3913.467	-808084.595	-8.446E-05	1.081E-03
7724.600	252.869	3913.613	-807831.787	-9.418E-05	1.142E-03
7725.200	252.884	3913.644	-807680.054	-1.215E-04	9.472E-04
7725.400	3.092	3897.110	-807679.443	-1.124E-04	1.086E-03
7725.800	2.864	3896.882	-807678.284	-1.191E-04	1.033E-03
7726.600	2.966	3896.548	-807675.842	-1.227E-04	8.318E-04
7727.600	2.971	3896.266	-807672.852	-9.357E-05	8.749E-04
7728.600	2.825	3896.033	-807670.105	-1.027E-04	1.083E-03
7729.600	2.757	3895.786	-807667.297	-8.871E-05	1.088E-03
7730.600	2.684	3895.647	-807664.429	-9.782E-05	9.667E-04
7731.600	2.762	3895.421	-807661.621	-1.088E-04	1.067E-03
7732.600	2.762	3895.248	-807658.813	-1.112E-04	1.059E-03
7733.600	2.805	3895.111	-807656.067	-1.003E-04	1.093E-03
7734.600	2.922	3894.979	-807653.259	-8.142E-05	9.424E-04
7735.600	2.825	3894.812	-807650.452	-1.033E-04	1.005E-03
7736.600	2.766	3894.679	-807647.705	-1.142E-04	9.952E-04
7737.600	2.781	3894.562	-807644.958	-1.173E-04	1.032E-03
7738.600	2.747	3894.425	-807642.151	-1.094E-04	1.026E-03
7739.600	2.737	3894.341	-807639.404	-1.063E-04	1.037E-03
7740.600	2.679	3894.264	-807636.658	-9.479E-05	1.016E-03
7741.600	2.781	3894.137	-807633.850	-7.838E-05	1.041E-03
7742.600	2.776	3894.049	-807631.042	-8.506E-05	1.092E-03
7743.600	2.689	3894.018	-807628.235	-1.112E-04	1.111E-03
7744.600	2.932	3893.863	-807625.427	-1.027E-04	1.037E-03
7745.600	2.694	3893.792	-807622.681	-9.843E-05	1.027E-03
7746.600	2.669	3893.763	-807619.934	-1.088E-04	1.071E-03
7747.600	2.825	3893.691	-807617.188	-1.130E-04	1.018E-03
7748.600	2.898	3893.603	-807614.441	-9.235E-05	9.861E-04
7749.600	2.873	3893.510	-807611.633	-1.167E-04	1.001E-03
7750.600	2.747	3893.453	-807608.887	-1.106E-04	1.055E-03
7751.600	2.893	3893.405	-807606.140	-9.539E-05	1.086E-03
7752.600	2.830	3893.336	-807603.394	-1.161E-04	1.127E-03
7753.600	2.917	3893.286	-807600.525	-9.296E-05	9.679E-04
7754.600	2.917	3893.237	-807597.656	-1.063E-04	9.400E-04
7755.600	2.859	3893.200	-807594.910	-1.051E-04	9.472E-04
7756.600	2.917	3893.141	-807592.102	-1.082E-04	9.867E-04
7757.600	2.815	3893.074	-807589.294	-1.130E-04	1.032E-03
7758.600	2.737	3893.005	-807586.426	-1.009E-04	1.075E-03
7759.600	2.694	3892.981	-807583.618	-9.357E-05	9.612E-04
7760.600	2.907	3892.960	-807580.750	-1.106E-04	1.020E-03
7761.600	2.810	3892.885	-807577.942	-1.063E-04	1.000E-03
7762.600	2.839	3892.857	-807575.073	-1.106E-04	9.479E-04
7763.600	2.869	3892.807	-807572.266	-1.161E-04	9.788E-04
7764.600	2.815	3892.785	-807569.397	-9.843E-05	1.020E-03
7765.600	2.781	3892.726	-807566.589	-1.082E-04	1.075E-03
7766.600	2.815	3892.716	-807563.782	-1.039E-04	1.160E-03
7767.600	2.815	3892.674	-807560.913	-1.033E-04	1.086E-03
7768.600	2.878	3892.617	-807558.105	-1.039E-04	9.849E-04
7769.600	2.659	3892.585	-807555.298	-1.051E-04	9.752E-04
7770.600	2.766	3892.565	-807552.551	-1.057E-04	1.028E-03
7771.600	2.932	3892.555	-807549.744	-1.167E-04	1.052E-03
7772.600	2.898	3892.497	-807546.936	-1.075E-04	1.092E-03
7773.600	2.961	3892.455	-807544.006	-9.965E-05	9.977E-04
7774.600	2.805	3892.461	-807541.138	-9.357E-05	1.083E-03
7775.600	2.655	3892.437	-807538.391	-1.057E-04	1.030E-03
7776.600	2.810	3892.402	-807535.645	-9.965E-05	1.007E-03
7777.600	2.703	3892.342	-807532.898	-1.118E-04	1.117E-03
7778.600	2.835	3892.348	-807530.151	-1.021E-04	1.067E-03
7779.600	2.830	3892.284	-807527.405	-1.015E-04	9.254E-04
7780.600	2.820	3892.290	-807524.658	-1.063E-04	9.503E-04
7781.600	2.820	3892.196	-807521.851	-9.539E-05	9.138E-04
7782.600	2.684	3892.264	-807519.104	-9.600E-05	9.971E-04
7783.600	2.941	3892.236	-807516.296	-1.088E-04	9.187E-04
7784.600	2.747	3892.144	-807513.550	-1.215E-04	9.977E-04
7785.600	2.611	3892.186	-807510.803	-1.136E-04	9.071E-04
7786.600	2.684	3892.154	-807508.057	-1.063E-04	1.018E-03
7787.600	2.694	3892.106	-807505.371	-1.197E-04	1.023E-03
7788.600	2.723	3892.106	-807502.625	-9.053E-05	1.142E-03
7789.600	2.800	3892.051	-807499.878	-1.215E-04	9.418E-04
7790.600	2.640	3892.075	-807497.131	-1.027E-04	1.043E-03
7791.600	2.689	3892.048	-807494.446	-1.003E-04	9.886E-04
7792.600	2.800	3891.988	-807491.760	-9.114E-05	1.120E-03
7793.600	2.907	3892.020	-807488.953	-1.136E-04	1.017E-03
7794.600	2.820	3892.017	-807486.206	-1.082E-04	1.139E-03
7795.600	2.844	3891.982	-807483.459	-1.100E-04	1.036E-03
7796.600	2.664	3891.933	-807480.713	-9.782E-05	9.977E-04
7797.600	2.786	3891.961	-807477.966	-9.357E-05	1.039E-03
7798.600	2.689	3891.921	-807475.159	-1.021E-04	1.051E-03
7799.600	2.718	3891.914	-807472.351	-1.015E-04	1.063E-03
7800.600	2.776	3891.864	-807469.604	-1.027E-04	1.105E-03
7801.600	2.810	3891.857	-807466.858	-1.027E-04	9.715E-04
7802.600	2.859	3891.839	-807464.050	-1.100E-04	8.883E-04
7803.600	2.708	3891.830	-807461.304	-1.021E-04	9.819E-04
7804.600	2.888	3891.796	-807458.496	-1.082E-04	8.980E-04
7805.600	2.752	3891.835	-807455.688	-1.148E-04	9.071E-04
7806.600	2.820	3891.802	-807452.942	-1.112E-04	1.018E-03
7807.600	2.985	3891.813	-807450.073	-1.069E-04	1.122E-03
7808.600	2.839	3891.774	-807447.327	-9.235E-05	9.150E-04
7809.600	2.698	3891.707	-807444.580	-1.033E-04	1.133E-03
7810.600	2.839	3891.769	-807441.772	-1.003E-04	1.151E-03
7811.600	2.844	3891.731	-807438.965	-1.033E-04	1.058E-03
7812.600	2.766	3891.722	-807436.218	-1.057E-04	1.035E-03
7813.600	2.873	3891.715	-807433.411	-1.161E-04	9.983E-04
7814.600	2.606	3891.701	-807430.664	-9.722E-05	9.928E-04
7815.600	2.650	3891.654	-807427.917	-1.075E-04	1.012E-03
7816.600	2.844	3891.647	-807425.049	-1.215E-04	1.004E-03
7817.600	2.796	3891.669	-807422.241	-1.118E-04	1.038E-03
7818.600	2.820	3891.649	-807419.434	-9.904E-05	1.085E-03
7819.600	2.883	3891.651	-807416.626	-8.810E-05	9.175E-04
7820.600	2.776	3891.617	-807413.757	-9.235E-05	9.661E-04
7821.600	2.888	3891.627	-807410.889	-9.357E-05	1.104E-03
7822.600	2.898	3891.578	-807408.081	-8.871E-05	9.564E-04
7823.600	2.791	3891.613	-807405.334	-1.009E-04	9.709E-04
7824.600	2.732	3891.585	-807402.527	-1.075E-04	1.030E-03
7825.600	2.689	3891.571	-807399.780	-9.965E-05	1.055E-03
7826.600	2.835	3891.574	-807397.034	-9.782E-05	1.154E-03
7827.600	2.664	3891.551	-807394.287	-9.965E-05	9.770E-04
7828.600	2.766	3891.531	-807391.541	-1.142E-04	9.928E-04
7829.600	2.723	3891.519	-807388.733	-1.069E-04	8.926E-04
7830.600	2.825	3891.539	-807385.864	-1.173E-04	1.054E-03
7831.600	2.898	3891.522	-807383.057	-1.003E-04	1.018E-03
7832.600	2.946	3891.514	-807380.188	-1.075E-04	9.618E-04
7833.600	2.810	3891.516	-807377.380	-1.039E-04	1.047E-03
7834.600	2.577	3891.493	-807374.695	-1.100E-04	8.956E-04
7835.600	2.941	3891.505	-807371.826	-1.185E-04	1.055E-03
7836.600	2.956	3891.469	-807368.835	-1.106E-04	1.044E-03
7837.600	2.786	3891.496	-807366.089	-1.148E-04	9.466E-04
7838.600	2.825	3891.487	-807363.281	-1.136E-04	1.081E-03
7839.600	2.839	3891.461	-807360.352	-1.130E-04	1.017E-03
7840.600	2.815	3891.451	-807357.483	-1.039E-04	9.983E-04
7841.600	2.941	3891.448	-807354.614	-1.039E-04	1.126E-03
7842.600	2.786	3891.444	-807351.746	-1.148E-04	1.002E-03
7843.600	2.752	3891.411	-807348.877	-1.094E-04	1.025E-03
7844.600	2.912	3891.438	-807346.069	-1.051E-04	1.055E-03
7845.200	2.713	3891.390	-807344.421	-1.130E-04	8.798E-04
7845.400	-247.137	3874.873	-807393.860	-1.069E-04	1.132E-03
7845.800	-247.083	3874.554	-807492.737	-1.154E-04	9.418E-04
7846.600	-247.215	3874.204	-807690.491	-9.843E-05	8.853E-04
7847.600	-247.290	3873.783	-807937.683	-1.069E-04	1.011E-03
7848.600	-247.288	3873.444	-808184.875	-1.015E-04	1.071E-03
7849.600	-247.076	3873.153	-808432.068	-1.221E-04	1.004E-03
7850.600	-247.312	3872.838	-808679.260	-1.148E-04	9.782E-04
7851.600	-247.317	3872.571	-808926.453	-1.112E-04	9.284E-04
7852.600	-247.132	3872.304	-809173.645	-1.215E-04	1.015E-03
7853.600	-247.018	3872.100	-809420.776	-1.069E-04	9.412E-04
7854.600	-247.103	3871.826	-809667.969	-1.051E-04	1.054E-03
7855.600	-247.057	3871.621	-809915.039	-1.106E-04	9.776E-04
7856.600	-247.120	3871.384	-810162.292	-1.185E-04	9.843E-04
7857.600	-247.137	3871.190	-810409.485	-1.033E-04	9.612E-04
7858.600	-247.118	3870.977	-810656.799	-9.539E-05	9.819E-04
7859.600	-247.127	3870.786	-810903.992	-1.039E-04	1.090E-03
7860.600	-247.434	3870.608	-811151.367	-1.021E-04	1.003E-03
7861.600	-247.312	3870.397	-811398.682	-1.100E-04	9.400E-04
7862.600	-247.319	3870.226	-811646.057	-1.063E-04	1.041E-03
7863.600	-247.562	3870.064	-811893.372	-1.021E-04	1.030E-03
7864.600	-247.147	3869.868	-812140.686	-9.782E-05	9.612E-04
7865.600	-247.472	3869.664	-812388.062	-1.063E-04	1.032E-03
7866.600	-247.336	3869.563	-812635.498	-1.069E-04	1.010E-03
7867.600	-247.431	3869.372	-812882.935	-9.418E-05	1.015E-03
7868.600	-247.397	3869.219	-813130.371	-9.965E-05	1.041E-03
7869.600	-247.344	3869.050	-813377.808	-1.173E-04	1.068E-03
7870.600	-247.341	3868.912	-813625.122	-1.106E-04	1.091E-03
7871.600	-247.302	3868.763	-813872.437	-9.965E-05	9.873E-04
7872.600	-247.319	3868.584	-814119.873	-1.179E-04	9.892E-04
7873.600	-247.307	3868.439	-814367.188	-1.063E-04	1.004E-03
7874.600	-247.215	3868.320	-814614.441	-9.722E-05	1.038E-03
7875.600	-247.176	3868.164	-814861.633	-1.033E-04	1.077E-03
7876.600	-247.244	3868.016	-815108.826	-1.118E-04	1.015E-03
7877.600	-247.278	3867.893	-815356.079	-1.100E-04	9.916E-04
7878.600	-247.307	3867.750	-815603.333	-1.179E-04	1.004E-03
7879.600	-247.207	3867.615	-815850.586	-1.051E-04	9.752E-04
7880.600	-247.392	3867.481	-816097.839	-8.749E-05	9.606E-04
7881.600	-247.256	3867.333	-816345.215	-9.600E-05	1.029E-03
7882.600	-247.378	3867.247	-816592.651	-1.057E-04	1.080E-03
7883.600	-247.297	3867.064	-816839.905	-1.069E-04	1.061E-03
7884.600	-247.232	3866.964	-817087.341	-9.296E-05	1.004E-03
7885.600	-247.382	3866.849	-817334.656	-9.296E-05	9.655E-04
7886.600	-247.135	3866.737	-817581.848	-1.185E-04	1.017E-03
7887.600	-247.380	3866.609	-817829.102	-1.039E-04	9.673E-04
7888.600	-247.212	3866.529	-818076.355	-1.185E-04	1.066E-03
7889.600	-247.256	3866.365	-818323.547	-1.118E-04	1.031E-03
7890.600	-247.178	3866.238	-818570.801	-1.106E-04	8.944E-04
7891.600	-247.127	3866.111	-818818.054	-9.357E-05	1.044E-03
7892.600	-247.307	3866.040	-819065.369	-1.179E-04	9.564E-04
7893.600	-247.288	3865.862	-819312.561	-1.191E-04	1.005E-03
7894.600	-247.278	3865.780	-819559.814	-9.904E-05	1.083E-03
7895.600	-247.278	3865.673	-819807.129	-8.871E-05	1.130E-03
7896.600	-247.312	3865.555	-820054.443	-1.270E-04	1.066E-03
7897.600	-247.232	3865.399	-820301.758	-9.053E-05	9.977E-04
7898.600	-247.232	3865.346	-820548.950	-9.722E-05	1.057E-03
7899.600	-247.244	3865.219	-820796.143	-8.871E-05	1.013E-03
7900.600	-247.181	3865.119	-821043.335	-1.082E-04	1.025E-03
7901.600	-247.334	3865.005	-821290.527	-9.904E-05	1.021E-03
7902.600	-247.293	3864.880	-821537.903	-1.063E-04	9.509E-04
7903.600	-247.258	3864.757	-821785.156	-1.051E-04	1.023E-03
7904.600	-247.475	3864.672	-822032.410	-1.039E-04	1.024E-03
7905.600	-247.176	3864.579	-822279.663	-8.689E-05	1.038E-03
7906.600	-247.096	3864.432	-822526.855	-9.782E-05	1.013E-03
7907.600	-247.514	3864.389	-822774.231	-9.965E-05	1.065E-03
7908.600	-247.210	3864.295	-823021.606	-9.114E-05	1.021E-03
7909.600	-247.329	3864.187	-823268.799	-9.479E-05	9.649E-04
7910.600	-247.358	3864.048	-823516.113	-1.167E-04	1.053E-03
7911.600	-247.283	3863.955	-823763.428	-1.009E-04	1.002E-03
7912.600	-247.314	3863.855	-824010.742	-1.100E-04	9.059E-04
7913.600	-247.361	3863.760	-824258.179	-1.009E-04	9.776E-04
7914.600	-247.373	3863.650	-824505.554	-1.161E-04	9.995E-04
7915.600	-247.317	3863.562	-824752.808	-1.106E-04	9.114E-04
7916.600	-247.477	3863.462	-825000.183	-1.088E-04	9.910E-04
7917.600	-247.499	3863.334	-825247.620	-1.118E-04	1.077E-03
7918.600	-247.429	3863.254	-825495.117	-1.197E-04	1.074E-03
7919.600	-247.297	3863.128	-825742.432	-1.057E-04	1.080E-03
7920.600	-247.307	3863.060	-825989.746	-9.479E-05	9.813E-04
7921.600	-247.254	3862.980	-826237.061	-1.185E-04	9.588E-04
7922.600	-247.533	3862.873	-826484.497	-1.057E-04	1.042E-03
7923.600	-247.385	3862.750	-826731.995	-9.296E-05	1.024E-03
7924.600	-247.497	3862.625	-826979.431	-1.063E-04	9.898E-04
7925.600	-247.385	3862.562	-827226.868	-1.021E-04	1.088E-03
7926.600	-247.353	3862.464	-827474.365	-1.033E-04	9.898E-04
7927.600	-247.485	3862.353	-827721.863	-1.063E-04	1.038E-03
7928.600	-247.419	3862.298	-827969.421	-9.539E-05	9.928E-04
7929.600	-247.480	3862.180	-828216.919	-1.154E-04	9.321E-04
7930.600	-247.373	3862.123	-828464.417	-8.992E-05	9.886E-04
7931.600	-247.258	3862.009	-828711.792	-1.051E-04	9.205E-04
7932.600	-247.365	3861.953	-828959.351	-1.094E-04	9.910E-04
7933.600	-247.382	3861.827	-829206.787	-1.063E-04	8.932E-04
7934.600	-247.468	3861.765	-829454.224	-9.296E-05	9.551E-04
7935.600	-247.497	3861.639	-829701.721	-1.033E-04	9.892E-04
7936.600	-247.348	3861.593	-829949.158	-1.063E-04	9.837E-04
7937.600	-247.426	3861.451	-830196.533	-1.082E-04	9.807E-04
7938.600	-247.339	3861.414	-830443.848	-1.154E-04	9.290E-04
7939.600	-247.344	3861.248	-830691.162	-9.600E-05	1.004E-03
7940.600	-247.395	3861.190	-830938.538	-1.106E-04	8.926E-04
7941.600	-247.375	3861.133	-831185.974	-1.045E-04	9.813E-04
7942.600	-247.300	3861.052	-831433.411	-9.114E-05	1.050E-03
7943.600	-247.322	3860.966	-831680.786	-1.039E-04	9.491E-04
7944.600	-247.533	3860.863	-831928.284	-9.114E-05	1.035E-03
7945.600	-247.336	3860.803	-832175.720	-1.045E-04	1.003E-03
7946.600	-247.424	3860.661	-832423.157	-1.173E-04	1.001E-03
7947.600	-247.402	3860.587	-832670.593	-1.148E-04	9.983E-04
7948.600	-247.431	3860.540	-832918.030	-1.136E-04	1.081E-03
7949.600	-247.263	3860.454	-833165.344	-1.075E-04	9.102E-04
7950.600	-247.382	3860.343	-833412.720	-9.175E-05	9.807E-04
7951.600	-247.387	3860.228	-833660.156	-1.142E-04	1.040E-03
7952.600	-247.570	3860.173	-833907.532	-1.051E-04	1.161E-03
7953.200	-247.324	3860.120	-834055.847	-9.722E-05	1.128E-03
7953.400	2.533	3876.686	-834055.359	-8.689E-05	1.007E-03
7953.800	2.577	3876.937	-834054.321	-8.446E-05	8.731E-04
7954.600	2.645	3877.288	-834052.185	-9.053E-05	1.077E-03
7955.600	2.723	3877.630	-834049.438	-1.075E-04	1.066E-03
7956.600	2.698	3877.921	-834046.692	-1.021E-04	9.497E-04
7957.600	2.864	3878.163	-834044.006	-1.021E-04	9.035E-04
7958.600	2.737	3878.417	-834041.260	-1.130E-04	9.065E-04
7959.600	2.621	3878.662	-834038.574	-1.069E-04	1.072E-03
7960.600	2.713	3878.845	-834035.828	-1.154E-04	8.555E-04
7961.600	2.854	3879.038	-834033.081	-1.033E-04	9.314E-04
7962.600	2.752	3879.202	-834030.334	-9.418E-05	1.026E-03
7963.600	2.825	3879.368	-834027.649	-1.167E-04	9.971E-04
7964.600	2.805	3879.529	-834024.841	-1.003E-04	9.576E-04
7965.600	2.869	3879.653	-834022.095	-1.094E-04	9.728E-04
7966.600	2.815	3879.813	-834019.287	-1.003E-04	9.059E-04
7967.600	2.752	3879.919	-834016.541	-8.871E-05	1.027E-03
7968.600	2.752	3880.057	-834013.855	-1.094E-04	1.023E-03
7969.600	2.650	3880.148	-834011.108	-1.033E-04	1.024E-03
7970.600	2.703	3880.265	-834008.240	-1.136E-04	9.169E-04
7971.600	2.723	3880.385	-834005.493	-1.009E-04	9.916E-04
7972.600	2.659	3880.477	-834002.747	-1.209E-04	9.916E-04
7973.600	2.805	3880.573	-834000.000	-1.021E-04	1.088E-03
7974.600	2.703	3880.655	-833997.253	-1.021E-04	1.139E-03
7975.600	2.723	3880.742	-833994.629	-1.082E-04	1.078E-03
7976.600	2.679	3880.864	-833991.882	-9.357E-05	1.158E-03
7977.600	2.815	3880.933	-833989.136	-1.051E-04	1.032E-03
7978.600	2.839	3881.006	-833986.450	-9.357E-05	9.746E-04
7979.600	2.839	3881.083	-833983.704	-1.039E-04	9.624E-04
7980.600	2.859	3881.151	-833980.957	-1.021E-04	9.515E-04
7981.600	2.737	3881.250	-833978.210	-9.661E-05	9.734E-04
7982.600	2.694	3881.311	-833975.464	-1.027E-04	9.108E-04
7983.600	2.820	3881.384	-833972.717	-1.057E-04	1.091E-03
7984.600	2.796	3881.437	-833969.910	-1.057E-04	1.063E-03
7985.600	2.825	3881.424	-833967.163	-9.600E-05	1.010E-03
7986.600	2.718	3881.562	-833964.294	-9.479E-05	1.000E-03
7987.600	2.825	3881.583	-833961.609	-1.167E-04	9.825E-04
7988.600	2.766	3881.644	-833958.801	-9.904E-05	9.163E-04
7989.600	2.835	3881.710	-833956.055	-1.057E-04	9.873E-04
7990.600	2.742	3881.780	-833953.308	-9.661E-05	8.938E-04
7991.600	2.718	3881.814	-833950.500	-9.904E-05	1.006E-03
7992.600	2.791	3881.872	-833947.693	-9.722E-05	1.054E-03
7993.600	2.698	3881.922	-833944.946	-1.167E-04	1.090E-03
7994.600	2.732	3881.963	-833942.200	-1.185E-04	9.867E-04
7995.600	2.732	3882.006	-833939.453	-9.357E-05	1.024E-03
7996.600	2.752	3882.055	-833936.646	-1.088E-04	1.085E-03
7997.600	2.937	3882.094	-833933.655	-9.965E-05	1.021E-03
7998.600	2.650	3882.113	-833930.847	-1.082E-04	1.111E-03
7999.600	2.781	3882.169	-833928.101	-1.057E-04	1.018E-03
8000.600	2.820	3882.212	-833925.354	-1.015E-04	9.734E-04
8001.600	2.674	3882.185	-833922.607	-9.539E-05	9.539E-04
8002.600	2.912	3882.256	-833919.800	-1.154E-04	9.618E-04
8003.600	2.927	3882.288	-833916.931	-9.782E-05	1.069E-03
8004.600	2.839	3882.355	-833914.124	-1.021E-04	1.106E-03
8005.600	2.698	3882.359	-833911.377	-1.045E-04	1.065E-03
8006.600	2.839	3882.373	-833908.569	-9.965E-05	9.983E-04
8007.600	2.878	3882.469	-833905.762	-1.027E-04	1.069E-03
8008.600	2.927	3882.458	-833902.893	-9.965E-05	9.643E-04
8009.600	2.732	3882.500	-833900.146	-8.749E-05	9.904E-04
8010.600	2.771	3882.542	-833897.400	-1.300E-04	9.892E-04
8011.600	2.752	3882.563	-833894.653	-1.082E-04	1.072E-03
8012.600	2.557	3882.582	-833891.968	-1.069E-04	1.030E-03
8013.600	2.737	3882.602	-833889.221	-1.015E-04	1.121E-03
8014.600	2.800	3882.606	-833886.414	-1.118E-04	1.006E-03
8015.600	2.650	3882.677	-833883.667	-9.904E-05	9.685E-04
8016.600	2.752	3882.696	-833880.859	-1.051E-04	1.047E-03
8017.600	2.669	3882.709	-833878.113	-9.539E-05	9.375E-04
8018.600	2.737	3882.685	-833875.366	-1.033E-04	1.049E-03
8019.600	2.859	3882.748	-833872.620	-9.053E-05	9.497E-04
8020.600	2.907	3882.790	-833869.812	-1.045E-04	1.102E-03
8021.600	2.796	3882.812	-833867.065	-9.357E-05	1.052E-03
8022.600	2.781	3882.837	-833864.258	-1.045E-04	9.983E-04
8023.600	2.771	3882.809	-833861.572	-9.600E-05	1.044E-03
8024.600	2.839	3882.868	-833858.826	-1.100E-04	1.071E-03
8025.600	2.645	3882.885	-833856.018	-1.051E-04	9.624E-04
8026.600	2.757	3882.900	-833853.210	-9.843E-05	1.052E-03
8027.600	2.961	3882.928	-833850.403	-9.235E-05	1.015E-03
8028.600	2.883	3882.911	-833847.656	-9.661E-05	1.044E-03
8029.600	2.771	3882.978	-833844.849	-1.027E-04	9.102E-04
8030.600	2.752	3882.967	-833842.102	-8.992E-05	1.058E-03
8031.600	2.903	3882.998	-833839.233	-9.600E-05	1.145E-03
8032.600	2.616	3883.000	-833836.487	-8.689E-05	9.636E-04
8033.600	2.762	3883.033	-833833.679	-9.357E-05	9.667E-04
8034.600	2.805	3883.032	-833830.933	-9.600E-05	1.000E-03
8035.600	2.689	3883.061	-833828.247	-8.932E-05	9.794E-04
8036.600	2.786	3883.065	-833825.500	-9.235E-05	9.539E-04
8037.600	2.762	3883.095	-833822.754	-8.385E-05	9.065E-04
8038.600	2.888	3883.084	-833820.129	-1.063E-04	9.904E-04
8039.600	2.728	3883.062	-833817.505	-1.039E-04	1.066E-03
8040.600	2.640	3883.094	-833814.758	-1.088E-04	1.043E-03
8041.600	2.548	3883.156	-833812.134	-8.810E-05	9.643E-04
8042.600	2.655	3883.143	-833809.387	-8.749E-05	1.114E-03
8043.600	2.766	3883.190	-833806.702	-9.661E-05	1.058E-03
8044.600	2.664	3883.207	-833803.955	-9.722E-05	1.117E-03
8045.600	2.611	3883.200	-833801.208	-1.148E-04	9.400E-04
8046.600	2.791	3883.241	-833798.462	-8.081E-05	9.649E-04
8047.600	2.815	3883.253	-833795.837	-9.843E-05	9.837E-04
8048.600	2.830	3883.263	-833793.152	-9.965E-05	1.036E-03
8049.600	2.708	3883.224	-833790.466	-1.021E-04	9.807E-04
8050.600	2.572	3883.262	-833787.842	-9.357E-05	1.123E-03
8051.600	2.820	3883.299	-833785.095	-8.689E-05	9.849E-04
8052.600	2.689	3883.284	-833782.349	-1.003E-04	1.056E-03
8053.600	2.601	3883.322	-833779.602	-9.843E-05	1.146E-03
8054.600	2.713	3883.310	-833776.917	-8.932E-05	1.029E-03
8055.600	2.698	3883.295	-833774.170	-1.039E-04	9.612E-04
8056.600	2.786	3883.323	-833771.423	-9.235E-05	9.576E-04
8057.600	2.752	3883.353	-833768.677	-1.124E-04	9.594E-04
8058.600	2.728	3883.374	-833765.930	-9.418E-05	9.406E-04
8059.600	2.796	3883.374	-833763.123	-8.992E-05	9.175E-04
8060.600	2.694	3883.395	-833760.376	-9.600E-05	9.697E-04
8061.600	2.835	3883.400	-833757.690	-9.722E-05	1.037E-03
8062.600	2.805	3883.436	-833754.883	-9.114E-05	9.813E-04
8063.600	2.640	3883.437	-833752.136	-9.357E-05	1.044E-03
8064.600	2.640	3883.419	-833749.329	-1.021E-04	1.024E-03
8065.600	2.815	3883.456	-833746.582	-9.661E-05	1.059E-03
8066.600	2.747	3883.466	-833743.835	-9.479E-05	1.128E-03
8067.600	2.859	3883.486	-833741.089	-9.965E-05	1.060E-03
8068.600	2.732	3883.477	-833738.342	-8.749E-05	9.649E-04
8069.600	2.650	3883.505	-833735.596	-1.027E-04	1.017E-03
8070.600	2.815	3883.510	-833732.849	-1.082E-04	1.006E-03
8071.600	2.757	3883.498	-833730.042	-8.203E-05	1.017E-03
8072.600	2.830	3883.516	-833727.234	-9.722E-05	9.959E-04
8073.200	2.810	3883.532	-833725.586	-8.992E-05	8.543E-04
8073.400	502.335	3916.630	-833625.122	-9.843E-05	1.116E-03
8073.800	502.520	3917.218	-833424.072	-9.296E-05	1.087E-03
8074.600	502.598	3918.027	-833021.973	-9.722E-05	1.114E-03
8075.600	502.593	3918.835	-832519.348	-9.782E-05	1.099E-03
8076.600	502.627	3919.544	-832016.724	-1.142E-04	1.080E-03
8077.600	502.602	3920.187	-831514.099	-1.039E-04	1.039E-03
8078.600	502.680	3920.792	-831011.475	-9.965E-05	9.922E-04
8079.600	502.675	3921.336	-830508.850	-8.871E-05	9.831E-04
8080.600	502.578	3921.845	-830006.226	-9.235E-05	1.059E-03
8081.600	502.636	3922.322	-829503.540	-8.992E-05	1.029E-03
8082.600	502.729	3922.808	-829000.916	-9.296E-05	1.071E-03
8083.600	502.729	3923.234	-828498.169	-7.777E-05	1.068E-03
8084.600	502.773	3923.688	-827995.422	-9.053E-05	1.030E-03
8085.600	502.753	3924.110	-827492.554	-9.418E-05	9.801E-04
8086.600	502.743	3924.443	-826989.685	-7.960E-05	9.193E-04
8087.600	502.743	3924.859	-826487.061	-1.021E-04	9.709E-04
8088.600	502.656	3925.214	-825984.436	-1.246E-04	9.369E-04
8089.600	502.773	3925.545	-825481.750	-9.965E-05	9.983E-04
8090.600	502.627	3925.892	-824979.065	-9.114E-05	1.020E-03
8091.600	502.841	3926.238	-824476.257	-1.106E-04	9.114E-04
8092.600	502.748	3926.536	-823973.450	-8.992E-05	9.564E-04
8093.600	502.753	3926.861	-823470.703	-9.722E-05	1.066E-03
8094.600	502.675	3927.144	-822968.018	-9.296E-05	1.057E-03
8095.600	502.768	3927.474	-822465.393	-1.039E-04	9.995E-04
8096.600	502.753	3927.724	-821962.524	-9.114E-05	1.025E-03
8097.600	502.734	3928.024	-821459.778	-1.112E-04	1.087E-03
8098.600	502.695	3928.254	-820957.153	-1.009E-04	1.087E-03
8099.600	502.675	3928.566	-820454.407	-9.418E-05	1.153E-03
8100.600	502.627	3928.814	-819951.782	-1.039E-04	1.055E-03
8101.600	502.646	3929.058	-819449.097	-1.185E-04	1.119E-03
8102.600	502.773	3929.306	-818946.472	-1.039E-04	9.873E-04
8103.600	502.529	3929.554	-818443.848	-1.051E-04	1.114E-03
8104.600	502.680	3929.791	-817941.162	-1.069E-04	1.038E-03
8105.600	502.656	3929.968	-817438.538	-9.904E-05	9.448E-04
8106.600	502.768	3930.246	-816935.852	-1.045E-04	1.047E-03
8107.600	502.821	3930.464	-816433.167	-1.082E-04	9.740E-04
8108.600	502.632	3930.670	-815930.481	-1.094E-04	9.114E-04
8109.600	502.612	3930.921	-815427.856	-1.051E-04	9.946E-04
8110.600	502.841	3931.082	-814925.171	-1.185E-04	9.254E-04
8111.600	502.782	3931.306	-814422.302	-1.039E-04	1.002E-03
8112.600	502.680	3931.494	-813919.678	-1.009E-04	9.545E-04
8113.600	502.700	3931.707	-813416.992	-1.021E-04	1.095E-03
8114.600	502.549	3931.883	-812914.368	-1.063E-04	9.272E-04
8115.600	502.690	3932.076	-812411.682	-9.235E-05	9.722E-04
8116.600	502.802	3932.295	-811908.875	-1.069E-04	9.946E-04
8117.600	502.972	3932.488	-811406.189	-1.221E-04	1.017E-03
8118.600	502.627	3932.684	-810903.442	-9.296E-05	9.497E-04
8119.600	502.846	3932.869	-810400.696	-1.100E-04	1.038E-03
8120.600	502.753	3933.040	-809898.071	-1.051E-04	9.643E-04
8121.600	502.661	3933.189	-809395.386	-9.053E-05	1.090E-03
8122.600	502.525	3933.395	-808892.761	-9.904E-05	1.095E-03
8123.600	502.695	3933.549	-808390.198	-9.904E-05	1.002E-03
8124.600	502.841	3933.713	-807887.390	-9.904E-05	9.794E-04
8125.600	502.738	3933.835	-807384.705	-1.154E-04	1.111E-03
8126.600	502.573	3934.059	-806882.080	-1.100E-04	1.031E-03
8127.200	502.763	3934.146	-806580.505	-1.033E-04	1.043E-03
8127.400	3.243	3901.194	-806579.834	-1.088E-04	1.060E-03
8127.800	2.927	3900.739	-806578.613	-1.118E-04	9.752E-04
8128.600	2.922	3900.157	-806576.233	-1.130E-04	1.036E-03
8129.600	2.815	3899.572	-806573.425	-1.069E-04	1.191E-03
8130.600	2.728	3899.157	-806570.679	-1.027E-04	1.060E-03
8131.600	2.796	3898.744	-806567.932	-1.039E-04	9.928E-04
8132.600	2.888	3898.420	-806565.063	-1.075E-04	9.965E-04
8133.600	2.689	3898.068	-806562.317	-9.296E-05	1.024E-03
8134.600	2.650	3897.805	-806559.509	-1.161E-04	9.880E-04
8135.600	2.752	3897.515	-806556.763	-1.015E-04	1.063E-03
8136.600	2.864	3897.279	-806553.955	-9.418E-05	1.023E-03
8137.600	2.907	3897.097	-806551.147	-9.114E-05	9.630E-04
8138.600	2.966	3896.841	-806548.340	-1.106E-04	1.106E-03
8139.600	2.849	3896.632	-806545.532	-9.600E-05	1.052E-03
8140.600	2.941	3896.450	-806542.725	-1.142E-04	8.676E-04
8141.600	2.771	3896.256	-806539.917	-1.130E-04	9.588E-04
8142.600	2.800	3896.096	-806537.109	-9.296E-05	9.284E-04
8143.600	2.864	3895.941	-806534.363	-1.100E-04	9.794E-04
8144.600	2.786	3895.777	-806531.616	-1.009E-04	9.728E-04
8145.600	2.708	3895.649	-806528.870	-9.965E-05	1.037E-03
8146.600	2.762	3895.531	-806525.940	-1.100E-04	9.819E-04
8147.600	2.888	3895.409	-806523.193	-9.965E-05	1.039E-03
8148.600	2.718	3895.237	-806520.447	-1.057E-04	1.121E-03
8149.600	2.835	3895.160	-806517.578	-1.063E-04	1.018E-03
8150.600	2.718	3895.042	-806514.709	-9.965E-05	9.600E-04
8151.600	2.859	3894.922	-806511.780	-1.124E-04	1.071E-03
8152.600	2.869	3894.832	-806509.033	-1.057E-04	9.788E-04
8153.600	2.820	3894.728	-806506.287	-1.045E-04	9.691E-04
8154.600	2.830	3894.600	-806503.418	-1.088E-04	1.074E-03
8155.600	2.810	3894.529	-806500.610	-9.418E-05	1.028E-03
8156.600	2.849	3894.464	-806497.803	-1.106E-04	1.163E-03
8157.600	2.820	3894.384	-806494.995	-1.009E-04	9.782E-04
8158.600	2.776	3894.323	-806492.249	-9.357E-05	1.060E-03
8159.600	2.941	3894.241	-806489.380	-1.142E-04	1.028E-03
8160.600	2.742	3894.163	-806486.633	-1.015E-04	9.017E-04
8161.600	2.951	3894.083	-806483.643	-1.112E-04	9.734E-04
8162.600	2.883	3894.039	-806480.835	-1.069E-04	1.088E-03
8163.600	2.893	3893.939	-806478.027	-1.185E-04	9.880E-04
8164.600	2.800	3893.884	-806475.098	-1.106E-04	1.105E-03
8165.600	2.927	3893.849	-806472.290	-1.118E-04	9.661E-04
8166.600	2.927	3893.800	-806469.360	-1.033E-04	9.254E-04
8167.600	2.825	3893.729	-806466.614	-1.100E-04	9.807E-04
8168.600	2.742	3893.664	-806463.867	-1.063E-04	1.027E-03
8169.600	2.893	3893.608	-806461.121	-1.033E-04	9.892E-04
8170.600	2.966	3893.566	-806458.313	-1.051E-04	9.752E-04
8171.600	2.893	3893.554	-806455.322	-9.539E-05	9.928E-04
8172.600	2.932	3893.520	-806452.454	-1.106E-04	1.018E-03
8173.600	2.854	3893.429	-806449.585	-1.118E-04	1.047E-03
8174.600	2.781	3893.389	-806446.777	-1.075E-04	1.091E-03
8175.600	2.825	3893.351	-806443.970	-9.296E-05	1.039E-03
8176.600	2.844	3893.345	-806441.162	-1.154E-04	9.618E-04
8177.600	2.927	3893.268	-806438.171	-1.015E-04	1.055E-03
8178.600	3.048	3893.214	-806435.242	-1.124E-04	1.176E-03
8179.600	2.980	3893.237	-806432.312	-1.197E-04	1.075E-03
8180.600	2.742	3893.168	-806429.382	-9.782E-05	1.009E-03
8181.600	2.951	3893.157	-806426.453	-1.136E-04	1.116E-03
8182.600	2.985	3893.123	-806423.523	-1.239E-04	1.170E-03
8183.600	2.907	3893.051	-806420.532	-1.142E-04	9.533E-04
8184.600	2.966	3893.057	-806417.603	-1.124E-04	9.527E-04
8185.600	2.869	3892.967	-806414.795	-1.221E-04	1.119E-03
8186.600	2.956	3892.992	-806411.865	-1.130E-04	8.932E-04
8187.600	2.869	3892.942	-806409.058	-1.106E-04	9.916E-04
8188.600	2.941	3892.884	-806406.067	-1.051E-04	1.142E-03
8189.600	2.849	3892.863	-806403.320	-1.015E-04	1.095E-03
8190.600	2.839	3892.807	-806400.513	-1.039E-04	9.636E-04
8191.600	2.951	3892.811	-806397.583	-9.965E-05	9.199E-04
8192.600	3.010	3892.795	-806394.653	-1.057E-04	1.025E-03
8193.600	2.791	3892.737	-806391.785	-9.843E-05	1.120E-03
8194.600	2.839	3892.751	-806389.038	-9.965E-05	1.080E-03
8195.600	2.747	3892.749	-806386.169	-1.075E-04	9.521E-04
8196.600	2.898	3892.708	-806383.362	-1.003E-04	1.045E-03
8197.600	2.869	3892.687	-806380.554	-9.296E-05	1.040E-03
8198.600	2.728	3892.628	-806377.808	-1.027E-04	9.746E-04
8199.600	2.825	3892.646	-806375.061	-1.094E-04	1.089E-03
8200.600	2.912	3892.613	-806372.253	-1.118E-04	8.373E-04
8201.600	2.903	3892.588	-806369.385	-1.015E-04	1.003E-03
8202.600	2.869	3892.569	-806366.577	-1.203E-04	1.103E-03
8203.600	2.907	3892.520	-806363.647	-9.296E-05	1.069E-03
8204.600	2.805	3892.516	-806360.840	-1.027E-04	1.035E-03
8205.600	3.024	3892.553	-806357.971	-9.661E-05	1.056E-03
8206.600	2.898	3892.519	-806355.164	-1.021E-04	9.661E-04
8207.600	2.732	3892.449	-806352.356	-1.130E-04	1.017E-03
8208.600	2.664	3892.455	-806349.609	-1.045E-04	1.075E-03
8209.600	2.869	3892.426	-806346.680	-1.130E-04	1.100E-03
8210.600	2.830	3892.435	-806343.872	-1.069E-04	9.776E-04
8211.600	2.941	3892.406	-806340.881	-1.161E-04	9.491E-04
8212.600	2.907	3892.415	-806338.074	-1.112E-04	9.709E-04
8213.600	2.903	3892.361	-806335.205	-8.871E-05	9.892E-04
8214.600	2.917	3892.381	-806332.214	-9.600E-05	1.071E-03
8215.600	3.010	3892.341	-806329.285	-1.003E-04	1.030E-03
8216.600	2.762	3892.325	-806326.416	-9.904E-05	1.001E-03
8217.600	3.068	3892.329	-806323.425	-1.082E-04	8.810E-04
8218.600	2.878	3892.320	-806320.557	-1.045E-04	1.004E-03
8219.600	2.859	3892.272	-806317.749	-1.124E-04	9.570E-04
8220.600	2.708	3892.268	-806314.819	-1.124E-04	9.497E-04
8221.600	2.669	3892.231	-806312.012	-1.118E-04	1.030E-03
8222.600	2.927	3892.259	-806309.143	-1.033E-04	1.122E-03
8223.600	2.961	3892.251	-806306.091	-1.148E-04	1.116E-03
8224.600	2.961	3892.218	-806303.223	-1.033E-04	9.491E-04
8225.600	2.995	3892.215	-806300.232	-1.142E-04	9.430E-04
8226.600	2.810	3892.196	-806297.241	-1.106E-04	1.052E-03
8227.600	2.878	3892.186	-806294.373	-1.082E-04	9.290E-04
8228.600	2.907	3892.154	-806291.321	-1.063E-04	1.117E-03
8229.600	2.854	3892.138	-806288.452	-1.088E-04	1.038E-03
8230.600	2.825	3892.155	-806285.461	-9.479E-05	1.023E-03
8231.600	2.971	3892.152	-806282.532	-1.045E-04	1.077E-03
8232.600	2.912	3892.141	-806279.541	-1.082E-04	1.037E-03
8233.600	2.844	3892.126	-806276.672	-9.722E-05	1.013E-03
8234.600	2.893	3892.118	-806273.865	-1.075E-04	1.075E-03
8235.600	2.815	3892.121	-806270.874	-9.722E-05	1.008E-03
8236.600	2.732	3892.063	-806268.066	-9.782E-05	9.612E-04
8237.600	2.825	3892.063	-806265.137	-9.539E-05	9.539E-04
8238.600	2.932	3892.030	-806262.329	-1.106E-04	1.013E-03
8239.600	2.907	3892.047	-806259.338	-9.296E-05	9.801E-04
8240.600	2.839	3892.044	-806256.409	-9.904E-05	9.837E-04
8241.600	2.815	3892.006	-806253.479	-9.114E-05	1.139E-03
8242.600	2.922	3891.991	-806250.610	-1.233E-04	1.134E-03
8243.600	2.951	3892.024	-806247.681	-9.965E-05	9.333E-04
8244.600	2.917	3892.007	-806244.690	-1.063E-04	8.464E-04
8245.600	2.835	3892.021	-806241.699	-9.235E-05	1.134E-03
8246.600	2.869	3891.978	-806238.708	-1.069E-04	1.007E-03
8247.200	2.903	3891.983	-806236.938	-9.418E-05	1.058E-03
8247.400	-496.676	3858.889	-806336.304	-1.009E-04	9.630E-04
8247.800	-496.931	3858.314	-806535.034	-1.130E-04	1.071E-03
8248.600	-496.882	3857.608	-806932.556	-8.628E-05	9.825E-04
8249.600	-497.113	3856.792	-807429.565	-9.539E-05	1.020E-03
8250.600	-497.031	3856.134	-807926.636	-1.033E-04	1.108E-03
8251.600	-497.286	3855.537	-808423.828	-1.161E-04	8.926E-04
8252.600	-497.167	3854.948	-808921.021	-9.296E-05	9.898E-04
8253.600	-497.189	3854.410	-809418.152	-9.904E-05	9.849E-04
8254.600	-497.191	3853.899	-809915.283	-9.235E-05	1.103E-03
8255.600	-497.101	3853.379	-810412.415	-8.324E-05	1.091E-03
8256.600	-497.094	3852.951	-810909.607	-1.136E-04	9.551E-04
8257.600	-497.130	3852.519	-811406.738	-1.057E-04	9.497E-04
8258.600	-497.101	3852.067	-811903.870	-9.661E-05	9.843E-04
8259.600	-497.094	3851.671	-812401.001	-1.106E-04	1.032E-03
8260.600	-497.038	3851.259	-812898.132	-9.661E-05	1.025E-03
8261.600	-497.352	3850.830	-813395.325	-9.357E-05	1.139E-03
8262.600	-497.193	3850.510	-813892.395	-9.479E-05	1.021E-03
8263.600	-497.354	3850.102	-814389.587	-1.051E-04	9.898E-04
8264.600	-497.378	3849.693	-814886.780	-8.992E-05	9.886E-04
8265.600	-497.213	3849.383	-815384.094	-1.051E-04	9.758E-04
8266.600	-497.133	3849.047	-815881.348	-9.722E-05	9.752E-04
8267.600	-497.242	3848.699	-816378.601	-9.843E-05	1.110E-03
8268.600	-497.369	3848.337	-816875.793	-9.661E-05	1.028E-03
8269.600	-497.133	3848.035	-817372.925	-9.722E-05	9.363E-04
8270.600	-497.179	3847.651	-817870.056	-1.112E-04	9.369E-04
8271.600	-497.101	3847.383	-818367.249	-1.082E-04	1.036E-03
8272.600	-497.271	3847.049	-818864.441	-8.871E-05	1.011E-03
8273.600	-497.167	3846.756	-819361.694	-1.057E-04	1.102E-03
8274.600	-497.082	3846.439	-819858.826	-9.479E-05	9.509E-04
8275.600	-497.186	3846.134	-820355.957	-9.722E-05	1.036E-03
8276.600	-497.208	3845.844	-820853.149	-8.324E-05	1.066E-03
8277.600	-497.291	3845.525	-821350.403	-9.904E-05	1.103E-03
8278.600	-497.230	3845.252	-821847.595	-9.539E-05	1.057E-03
8279.600	-497.257	3844.969	-822344.788	-1.045E-04	1.114E-03
8280.600	-497.079	3844.706	-822841.919	-8.628E-05	1.039E-03
8281.600	-497.281	3844.444	-823339.050	-7.777E-05	9.691E-04
8282.600	-497.133	3844.150	-823836.243	-1.009E-04	9.740E-04
8283.600	-497.118	3843.862	-824333.374	-1.142E-04	1.072E-03
8284.600	-497.242	3843.619	-824830.505	-9.600E-05	1.112E-03
8285.600	-497.169	3843.320	-825327.637	-1.027E-04	9.801E-04
8286.600	-497.138	3843.098	-825824.890	-1.118E-04	1.015E-03
8287.600	-497.232	3842.832	-826322.021	-9.357E-05	1.040E-03
8288.600	-497.434	3842.547	-826819.275	-1.130E-04	9.442E-04
8289.600	-497.291	3842.301	-827316.650	-9.600E-05	1.145E-03
8290.600	-497.327	3841.999	-827813.904	-1.039E-04	1.007E-03
8291.600	-497.206	3841.849	-828311.157	-9.114E-05	9.916E-04
8292.600	-497.262	3841.572	-828808.289	-1.082E-04	1.068E-03
8293.600	-497.181	3841.294	-829305.420	-9.539E-05	9.381E-04
8294.600	-497.364	3841.050	-829802.612	-7.960E-05	1.041E-03
8295.600	-497.043	3840.869	-830299.805	-9.296E-05	1.055E-03
8296.600	-497.308	3840.592	-830796.997	-8.932E-05	1.046E-03
8297.600	-497.247	3840.364	-831294.128	-9.357E-05	1.055E-03
8298.600	-497.230	3840.129	-831791.260	-9.661E-05	1.018E-03
8299.600	-497.142	3839.921	-832288.452	-9.782E-05	9.831E-04
8300.600	-497.412	3839.669	-832785.645	-9.357E-05	1.054E-03
8301.200	-497.356	3839.551	-833084.045	-1.197E-04	1.010E-03
8301.400	2.494	3872.623	-833083.557	-9.843E-05	9.345E-04
8301.800	2.703	3873.122	-833082.458	-1.057E-04	1.024E-03
8302.600	2.528	3873.790	-833080.322	-1.021E-04	1.049E-03
8303.600	2.728	3874.410	-833077.576	-1.154E-04	9.533E-04
8304.600	2.859	3874.968	-833074.829	-1.003E-04	9.752E-04
8305.600	2.859	3875.408	-833072.083	-9.175E-05	1.053E-03
8306.600	2.800	3875.835	-833069.336	-1.063E-04	1.134E-03
8307.600	2.747	3876.229	-833066.589	-1.112E-04	1.098E-03
8308.600	2.927	3876.564	-833063.782	-8.446E-05	1.098E-03
8309.600	2.835	3876.849	-833061.035	-9.843E-05	1.107E-03
8310.600	2.854	3877.192	-833058.167	-8.932E-05	9.673E-04
8311.600	2.781	3877.471	-833055.359	-1.088E-04	1.078E-03
8312.600	2.883	3877.738	-833052.551	-1.027E-04	1.021E-03
8313.600	2.864	3877.954	-833049.744	-9.053E-05	1.094E-03
8314.600	2.757	3878.173	-833046.936	-1.057E-04	9.606E-04
8315.600	2.946	3878.381	-833044.067	-8.446E-05	1.075E-03
8316.600	2.966	3878.648	-833041.138	-1.112E-04	1.026E-03
8317.600	2.708	3878.833	-833038.208	-1.063E-04	1.025E-03
8318.600	2.951	3879.013	-833035.339	-1.033E-04	9.843E-04
8319.600	2.839	3879.160	-833032.532	-9.843E-05	1.043E-03
8320.600	2.820	3879.335	-833029.785	-8.992E-05	9.825E-04
8321.600	2.742	3879.498	-833026.978	-9.479E-05	1.049E-03
8322.600	2.878	3879.691	-833024.170	-9.175E-05	9.691E-04
8323.600	2.971	3879.835	-833021.179	-1.106E-04	1.038E-03
8324.600	3.034	3879.899	-833018.188	-9.600E-05	1.072E-03
8325.600	2.898	3880.096	-833015.198	-1.015E-04	1.030E-03
8326.600	2.820	3880.184	-833012.207	-9.296E-05	9.242E-04
8327.600	2.985	3880.316	-833009.277	-9.235E-05	9.880E-04
8328.600	2.844	3880.472	-833006.348	-9.479E-05	1.161E-03
8329.600	2.883	3880.555	-833003.418	-9.175E-05	1.058E-03
8330.600	2.835	3880.660	-833000.610	-8.689E-05	1.074E-03
8331.600	2.810	3880.755	-832997.803	-1.051E-04	1.072E-03
8332.600	2.839	3880.832	-832995.056	-9.418E-05	1.006E-03
8333.600	3.068	3880.929	-832992.188	-9.175E-05	1.102E-03
8334.600	2.898	3881.044	-832989.319	-9.539E-05	1.023E-03
8335.600	2.800	3881.133	-832986.328	-9.114E-05	1.013E-03
8336.600	2.869	3881.220	-832983.582	-1.185E-04	9.849E-04
8337.600	2.796	3881.298	-832980.652	-1.039E-04	1.076E-03
8338.600	2.825	3881.383	-832977.905	-1.027E-04	1.098E-03
8339.600	2.932	3881.437	-832975.037	-9.539E-05	1.027E-03
8340.600	2.698	3881.502	-832972.168	-1.039E-04	8.944E-04
8341.600	2.796	3881.601	-832969.360	-1.179E-04	9.849E-04
8342.600	2.830	3881.660	-832966.492	-8.810E-05	1.023E-03
8343.600	2.878	3881.699	-832963.684	-9.843E-05	1.058E-03
8344.600	2.698	3881.771	-832960.938	-9.843E-05	1.024E-03
8345.600	2.859	3881.839	-832958.130	-1.124E-04	9.983E-04
8346.600	2.859	3881.875	-832955.200	-9.722E-05	9.509E-04
8347.600	2.825	3881.969	-832952.332	-9.782E-05	9.794E-04
8348.600	2.883	3882.040	-832949.402	-1.015E-04	1.030E-03
8349.600	2.873	3882.077	-832946.472	-1.118E-04	1.052E-03
8350.600	2.883	3882.151	-832943.665	-9.114E-05	1.035E-03
8351.600	2.864	3882.158	-832940.796	-1.015E-04	1.127E-03
8352.600	3.024	3882.219	-832937.927	-1.161E-04	9.965E-04
8353.600	2.878	3882.240	-832934.998	-1.045E-04	1.048E-03
8354.600	2.800	3882.305	-832932.129	-7.960E-05	1.080E-03
8355.600	2.903	3882.367	-832929.260	-9.600E-05	1.125E-03
8356.600	2.805	3882.423	-832926.453	-8.749E-05	9.533E-04
8357.600	2.815	3882.443	-832923.645	-1.082E-04	9.886E-04
8358.600	2.655	3882.481	-832920.898	-1.009E-04	1.024E-03
8359.600	2.786	3882.516	-832918.152	-9.722E-05	1.013E-03
8360.600	2.873	3882.554	-832915.405	-9.418E-05	1.143E-03
8361.600	2.990	3882.596	-832912.598	-1.094E-04	1.123E-03
8362.600	2.815	3882.641	-832909.729	-8.810E-05	1.120E-03
8363.600	2.912	3882.675	-832906.921	-1.100E-04	1.004E-03
8364.600	2.917	3882.665	-832903.992	-8.932E-05	9.940E-04
8365.600	2.849	3882.685	-832901.184	-1.039E-04	1.034E-03
8366.600	2.956	3882.770	-832898.254	-1.045E-04	1.014E-03
8367.600	2.907	3882.818	-832895.386	-8.081E-05	1.086E-03
8368.600	2.878	3882.847	-832892.578	-1.069E-04	1.032E-03
8369.600	2.728	3882.846	-832889.832	-7.595E-05	1.020E-03
8370.600	2.776	3882.897	-832887.085	-9.600E-05	1.103E-03
8371.600	2.956	3882.918	-832884.277	-9.965E-05	1.001E-03
8372.600	2.844	3882.953	-832881.531	-9.722E-05	1.039E-03
8373.600	2.800	3882.984	-832878.723	-9.539E-05	9.794E-04
8374.600	2.791	3883.013	-832875.977	-9.843E-05	1.055E-03
8375.600	2.922	3883.028	-832873.169	-9.965E-05	1.060E-03
8376.600	3.000	3883.070	-832870.300	-1.167E-04	1.049E-03
8377.600	2.907	3883.061	-832867.432	-9.539E-05	9.922E-04
8378.600	3.000	3883.139	-832864.563	-9.296E-05	1.013E-03
8379.600	2.820	3883.123	-832861.755	-9.175E-05	1.072E-03
8380.600	2.747	3883.161	-832858.948	-9.600E-05	9.485E-04
8381.600	2.835	3883.161	-832856.018	-9.904E-05	9.825E-04
8382.600	2.747	3883.189	-832853.210	-9.053E-05	1.061E-03
8383.600	2.888	3883.178	-832850.403	-1.106E-04	1.080E-03
8384.600	2.713	3883.226	-832847.595	-1.075E-04	1.028E-03
8385.600	2.839	3883.250	-832844.788	-1.069E-04	1.113E-03
8386.600	2.776	3883.270	-832841.919	-9.539E-05	9.892E-04
8387.600	2.859	3883.313	-832839.111	-1.069E-04	1.006E-03
8388.600	2.781	3883.318	-832836.243	-9.296E-05	9.952E-04
8389.600	2.859	3883.302	-832833.374	-1.009E-04	9.837E-04
8390.600	3.058	3883.325	-832830.505	-9.539E-05	1.168E-03
8391.600	2.956	3883.360	-832827.637	-1.033E-04	1.053E-03
8392.600	2.951	3883.368	-832824.829	-1.021E-04	9.946E-04
8393.600	2.606	3883.429	-832822.021	-1.039E-04	9.047E-04
8394.600	2.922	3883.442	-832819.153	-1.015E-04	9.248E-04
8395.600	2.917	3883.406	-832816.284	-1.003E-04	9.314E-04
8396.600	2.864	3883.471	-832813.477	-9.114E-05	9.703E-04
8397.600	2.800	3883.490	-832810.669	-1.142E-04	1.031E-03
8398.600	2.873	3883.528	-832807.861	-8.871E-05	1.012E-03
8399.600	2.791	3883.519	-832805.115	-1.069E-04	1.054E-03
8400.600	2.869	3883.547	-832802.368	-1.075E-04	9.886E-04
8401.600	2.771	3883.546	-832799.561	-9.600E-05	1.068E-03
8402.600	2.980	3883.570	-832796.753	-9.053E-05	1.100E-03
8403.600	2.698	3883.597	-832793.945	-8.810E-05	1.015E-03
8404.600	2.776	3883.593	-832791.199	-8.446E-05	1.048E-03
8405.600	2.825	3883.582	-832788.391	-1.009E-04	1.061E-03
8406.600	2.732	3883.599	-832785.645	-1.027E-04	1.107E-03
8407.600	2.766	3883.607	-832782.898	-8.446E-05	9.861E-04
8408.600	2.820	3883.649	-832780.151	-1.003E-04	1.049E-03
8409.600	2.786	3883.645	-832777.283	-1.033E-04	1.065E-03
8410.600	2.830	3883.680	-832774.536	-1.063E-04	1.100E-03
8411.600	2.859	3883.690	-832771.729	-9.114E-05	1.012E-03
8412.600	2.956	3883.676	-832768.860	-1.021E-04	1.027E-03
8413.600	2.912	3883.713	-832765.869	-1.148E-04	1.074E-03
8414.600	2.976	3883.701	-832763.000	-9.539E-05	9.485E-04
8415.600	2.815	3883.733	-832760.132	-9.175E-05	9.946E-04
8416.600	2.854	3883.741	-832757.446	-1.088E-04	1.029E-03
8417.600	2.946	3883.770	-832754.456	-1.167E-04	9.126E-04
8418.600	2.990	3883.781	-832751.587	-9.782E-05	9.521E-04
8419.600	2.854	3883.785	-832748.779	-1.003E-04	9.509E-04
8420.600	2.864	3883.789	-832745.972	-1.112E-04	9.922E-04
8421.200	2.951	3883.811	-832744.263	-9.235E-05	9.527E-04
8421.400	1251.442	3966.482	-832493.958	-1.021E-04	1.033E-03
8421.800	1252.254	3967.817	-831993.103	-1.021E-04	9.959E-04
8422.200	1252.313	3968.908	-831492.188	-1.045E-04	9.904E-04
8422.800	1252.390	3970.234	-830740.723	-1.015E-04	1.018E-03
8423.400	1252.546	3971.425	-829989.258	-1.069E-04	9.691E-04
8424.000	1252.385	3972.485	-829237.793	-1.100E-04	1.018E-03
8424.800	1252.492	3973.740	-828235.840	-1.167E-04	1.036E-03
8425.600	1252.648	3974.979	-827233.765	-1.173E-04	1.019E-03
8426.400	1252.556	3976.071	-826231.812	-9.600E-05	9.837E-04
8427.200	1252.385	3977.148	-825229.797	-9.661E-05	9.965E-04
8428.200	1252.400	3978.351	-823977.356	-1.075E-04	1.034E-03
8429.200	1252.672	3979.495	-822724.609	-1.063E-04	9.776E-04
8430.200	1252.434	3980.533	-821472.168	-1.100E-04	1.026E-03
8431.200	1252.619	3981.606	-820219.604	-1.021E-04	9.667E-04
8432.200	1252.619	3982.546	-818967.102	-1.136E-04	1.065E-03
8433.200	1252.585	3983.485	-817714.478	-1.306E-04	8.689E-04
8434.200	1252.677	3984.350	-816461.792	-1.003E-04	9.418E-04
8435.200	1252.565	3985.159	-815209.106	-9.965E-05	1.006E-03
8436.200	1252.629	3985.980	-813956.360	-1.106E-04	1.078E-03
8437.200	1252.556	3986.705	-812703.674	-1.173E-04	9.248E-04
8438.200	1252.609	3987.444	-811450.989	-1.033E-04	8.992E-04
8439.200	1252.575	3988.153	-810198.547	-1.069E-04	9.181E-04
8440.200	1252.779	3988.829	-808945.862	-9.722E-05	1.068E-03
8441.200	1252.750	3989.488	-807693.237	-1.045E-04	1.073E-03
8442.200	1252.750	3990.138	-806440.491	-1.185E-04	9.071E-04
8442.800	1252.643	3990.510	-805688.843	-1.221E-04	1.061E-03
8443.000	3.977	3908.260	-805688.049	-8.689E-05	9.211E-04
8443.400	3.189	3907.250	-805686.768	-8.932E-05	9.150E-04
8444.200	3.185	3906.074	-805684.326	-1.154E-04	1.068E-03
8445.200	2.951	3904.920	-805681.274	-9.904E-05	1.066E-03
8446.200	2.961	3904.085	-805678.223	-1.021E-04	1.102E-03
8447.200	2.732	3903.252	-805675.476	-1.088E-04	9.503E-04
8448.200	2.776	3902.618	-805672.607	-1.003E-04	1.177E-03
8449.200	2.980	3901.972	-805669.739	-1.124E-04	1.116E-03
8450.200	2.844	3901.473	-805666.870	-1.003E-04	1.132E-03
8451.200	2.985	3901.037	-805664.063	-1.118E-04	9.916E-04
8452.200	2.859	3900.588	-805661.255	-9.418E-05	9.934E-04
8453.200	2.718	3900.149	-805658.325	-9.965E-05	9.029E-04
8454.200	2.941	3899.780	-805655.457	-1.045E-04	9.709E-04
8455.200	2.835	3899.447	-805652.649	-9.843E-05	9.254E-04
8456.200	3.014	3899.127	-805649.597	-1.039E-04	1.014E-03
8457.200	2.907	3898.791	-805646.729	-1.082E-04	9.734E-04
8458.200	2.747	3898.537	-805643.921	-1.148E-04	9.047E-04
8459.200	2.713	3898.263	-805641.113	-9.843E-05	1.002E-03
8460.200	2.747	3898.020	-805638.245	-1.148E-04	1.009E-03
8461.200	2.713	3897.747	-805635.315	-1.082E-04	1.043E-03
8462.200	2.728	3897.530	-805632.507	-9.479E-05	9.995E-04
8463.200	2.869	3897.338	-805629.578	-9.782E-05	1.079E-03
8464.200	2.893	3897.097	-805626.770	-1.039E-04	9.898E-04
8465.200	2.893	3896.960	-805623.840	-1.082E-04	1.021E-03
8466.200	2.878	3896.744	-805620.911	-9.235E-05	9.734E-04
8467.200	2.864	3896.593	-805618.103	-1.082E-04	9.776E-04
8468.200	2.815	3896.423	-805615.295	-1.197E-04	9.983E-04
8469.200	2.844	3896.272	-805612.488	-1.045E-04	1.018E-03
8470.200	2.927	3896.125	-805609.558	-8.932E-05	1.124E-03
8471.200	2.961	3896.046	-805606.628	-9.782E-05	1.080E-03
8472.200	2.844	3895.891	-805603.760	-7.413E-05	9.448E-04
8473.200	2.820	3895.789	-805600.952	-9.782E-05	9.746E-04
8474.200	2.898	3895.633	-805598.206	-1.142E-04	1.055E-03
8475.200	2.898	3895.534	-805595.337	-9.114E-05	1.051E-03
8476.200	2.985	3895.448	-805592.529	-1.075E-04	9.479E-04
8477.200	2.771	3895.314	-805589.783	-9.479E-05	8.597E-04
8478.200	2.859	3895.209	-805586.914	-9.539E-05	1.058E-03
8479.200	2.966	3895.128	-805583.862	-9.539E-05	1.005E-03
8480.200	2.903	3895.052	-805580.933	-8.689E-05	1.018E-03
8481.200	2.800	3894.962	-805578.064	-1.075E-04	9.873E-04
8482.200	2.674	3894.868	-805575.256	-1.148E-04	8.743E-04
8483.200	2.951	3894.785	-805572.388	-9.418E-05	1.026E-03
8484.200	3.005	3894.741	-805569.519	-1.088E-04	9.989E-04
8485.200	2.835	3894.665	-805566.711	-9.479E-05	9.412E-04
8486.200	2.674	3894.533	-805563.843	-9.965E-05	8.956E-04
8487.200	2.800	3894.499	-805560.974	-9.965E-05	9.400E-04
8488.200	2.723	3894.456	-805558.167	-9.600E-05	1.054E-03
8489.200	2.849	3894.420	-805555.420	-1.045E-04	1.097E-03
8490.200	2.771	3894.324	-805552.673	-1.082E-04	9.794E-04
8491.200	2.864	3894.284	-805549.805	-1.009E-04	9.649E-04
8492.200	2.883	3894.218	-805546.997	-1.027E-04	9.345E-04
8493.200	2.912	3894.159	-805544.128	-1.051E-04	1.015E-03
8494.200	2.937	3894.100	-805541.138	-1.124E-04	1.100E-03
8495.200	2.980	3894.057	-805538.208	-1.039E-04	1.017E-03
8496.200	2.718	3893.998	-805535.278	-1.015E-04	1.100E-03
8497.200	2.781	3893.951	-805532.471	-8.689E-05	1.083E-03
8498.200	2.932	3893.931	-805529.480	-1.009E-04	1.060E-03
8499.200	2.859	3893.857	-805526.672	-9.782E-05	9.217E-04
8500.200	2.732	3893.837	-805523.682	-1.003E-04	1.055E-03
8501.200	3.078	3893.778	-805520.813	-1.082E-04	1.065E-03
8502.200	3.087	3893.753	-805517.944	-8.567E-05	1.093E-03
8503.200	2.946	3893.667	-805514.954	-8.689E-05	1.029E-03
8504.200	2.815	3893.638	-805512.024	-1.088E-04	1.020E-03
8505.200	2.869	3893.635	-805509.216	-9.661E-05	9.752E-04
8506.200	3.097	3893.580	-805506.287	-9.539E-05	1.052E-03
8507.200	3.034	3893.517	-805503.357	-8.871E-05	9.934E-04
8508.200	2.971	3893.496	-805500.366	-9.539E-05	1.022E-03
8509.200	2.864	3893.478	-805497.437	-1.009E-04	8.695E-04
8510.200	3.126	3893.430	-805494.385	-1.021E-04	1.018E-03
8511.200	2.849	3893.429	-805491.516	-9.661E-05	1.001E-03
8512.200	2.937	3893.414	-805488.708	-9.782E-05	1.015E-03
8513.200	2.956	3893.353	-805485.718	-1.100E-04	9.418E-04
8514.200	2.893	3893.370	-805482.910	-1.015E-04	1.077E-03
8515.200	2.893	3893.273	-805479.980	-9.357E-05	1.009E-03
8516.200	2.835	3893.287	-805477.173	-9.661E-05	9.551E-04
8517.200	2.971	3893.245	-805474.182	-1.015E-04	9.928E-04
8518.200	2.854	3893.264	-805471.191	-8.871E-05	1.138E-03
8519.200	2.976	3893.203	-805468.323	-1.118E-04	9.770E-04
8520.200	2.976	3893.228	-805465.393	-1.003E-04	1.001E-03
8521.200	2.888	3893.173	-805462.585	-1.039E-04	1.055E-03
8522.200	3.165	3893.122	-805459.656	-9.661E-05	1.031E-03
8523.200	2.859	3893.130	-805456.726	-1.118E-04	1.068E-03
8524.200	2.878	3893.072	-805453.857	-1.015E-04	1.030E-03
8525.200	2.951	3893.034	-805450.928	-9.235E-05	1.143E-03
8526.200	2.951	3893.058	-805447.937	-1.057E-04	1.125E-03
8527.200	2.888	3893.013	-805445.007	-9.418E-05	1.030E-03
8528.200	2.869	3893.006	-805442.139	-8.992E-05	1.054E-03
8529.200	3.000	3892.986	-805439.148	-9.600E-05	1.031E-03
8530.200	3.151	3892.931	-805436.157	-1.136E-04	1.057E-03
8531.200	2.883	3892.925	-805433.411	-1.167E-04	1.097E-03
8532.200	2.878	3892.944	-805430.481	-1.082E-04	1.016E-03
8533.200	2.830	3892.898	-805427.551	-9.357E-05	9.971E-04
8534.200	2.956	3892.857	-805424.683	-1.142E-04	9.977E-04
8535.200	2.917	3892.895	-805421.753	-1.009E-04	1.040E-03
8536.200	2.971	3892.839	-805418.823	-9.479E-05	1.047E-03
8537.200	2.825	3892.840	-805416.016	-9.053E-05	1.032E-03
8538.200	2.980	3892.797	-805413.025	-1.021E-04	9.491E-04
8539.200	2.917	3892.832	-805410.156	-1.051E-04	1.024E-03
8540.200	2.907	3892.808	-805407.166	-1.112E-04	9.728E-04
8541.200	3.063	3892.768	-805404.236	-8.506E-05	1.096E-03
8542.200	2.976	3892.776	-805401.367	-1.082E-04	1.074E-03
8543.200	2.752	3892.772	-805398.438	-9.479E-05	1.009E-03
8544.200	2.859	3892.758	-805395.630	-9.296E-05	9.655E-04
8545.200	2.995	3892.715	-805392.578	-9.843E-05	1.010E-03
8546.200	2.835	3892.682	-805389.648	-8.385E-05	1.116E-03
8547.200	2.980	3892.715	-805386.658	-9.661E-05	1.017E-03
8548.200	2.830	3892.647	-805383.728	-1.003E-04	1.010E-03
8549.200	2.941	3892.675	-805380.798	-1.130E-04	1.068E-03
8550.200	2.907	3892.653	-805377.869	-8.749E-05	1.076E-03
8551.200	2.776	3892.611	-805375.061	-8.871E-05	1.072E-03
8552.200	2.781	3892.642	-805372.314	-9.661E-05	1.046E-03
8553.200	2.941	3892.614	-805369.263	-9.296E-05	1.039E-03
8554.200	2.961	3892.612	-805366.333	-9.661E-05	1.010E-03
8555.200	3.014	3892.611	-805363.281	-1.094E-04	1.018E-03
8556.200	3.029	3892.588	-805360.291	-8.810E-05	9.163E-04
8557.200	3.034	3892.585	-805357.239	-9.539E-05	1.023E-03
8558.200	2.985	3892.559	-805354.248	-7.656E-05	1.021E-03
8559.200	3.058	3892.535	-805351.318	-1.051E-04	1.007E-03
8560.200	2.869	3892.524	-805348.572	-1.154E-04	9.740E-04
8561.200	2.878	3892.544	-805345.764	-8.324E-05	9.849E-04
8562.200	2.956	3892.487	-805342.834	-1.015E-04	9.630E-04
8562.800	2.966	3892.493	-805341.064	-1.021E-04	1.019E-03
8563.000	-1246.014	3810.011	-805590.271	-9.235E-05	1.072E-03
8563.400	-1246.682	3808.656	-806088.928	-9.357E-05	1.060E-03
8563.800	-1246.911	3807.614	-806587.708	-7.413E-05	1.021E-03
8564.400	-1246.782	3806.327	-807335.754	-9.357E-05	1.001E-03
8565.000	-1246.962	3805.187	-808083.801	-9.418E-05	1.001E-03
8565.600	-1246.814	3804.178	-808831.909	-9.661E-05	1.090E-03
8566.200	-1247.049	3803.114	-809580.139	-9.539E-05	1.001E-03
8567.000	-1247.098	3801.897	-810577.698	-9.965E-05	1.083E-03
8567.800	-1247.079	3800.718	-811575.317	-8.749E-05	1.032E-03
8568.600	-1247.037	3799.643	-812572.937	-1.100E-04	9.794E-04
8569.400	-1246.989	3798.535	-813570.618	-7.170E-05	1.031E-03
8570.400	-1247.035	3797.293	-814817.688	-8.871E-05	1.112E-03
8571.200	-1247.188	3796.268	-815815.308	-8.749E-05	9.886E-04
8572.200	-1246.923	3795.121	-817062.256	-8.142E-05	1.097E-03
8573.200	-1247.091	3793.905	-818309.204	-1.075E-04	1.113E-03
8574.200	-1246.891	3792.814	-819556.152	-9.904E-05	1.088E-03
8575.200	-1247.047	3791.742	-820803.101	-9.965E-05	9.691E-04
8576.200	-1247.028	3790.686	-822050.049	-8.810E-05	1.195E-03
8577.200	-1247.071	3789.644	-823297.058	-8.689E-05	1.021E-03
8578.200	-1247.020	3788.618	-824544.067	-9.539E-05	9.788E-04
8579.200	-1247.154	3787.590	-825791.138	-1.057E-04	9.916E-04
8580.200	-1247.033	3786.639	-827038.147	-9.600E-05	9.946E-04
8581.200	-1247.108	3785.645	-828285.156	-1.069E-04	9.989E-04
8582.200	-1247.020	3784.742	-829532.288	-1.088E-04	9.175E-04
8583.200	-1246.994	3783.840	-830779.297	-8.871E-05	1.049E-03
8584.200	-1247.052	3782.944	-832026.367	-9.479E-05	9.564E-04
8584.400	-1247.125	3782.769	-832275.818	-9.661E-05	1.024E-03
8584.600	1.843	3865.384	-832275.452	-9.843E-05	1.102E-03
8585.000	2.280	3866.462	-832274.536	-1.148E-04	1.021E-03
8585.600	2.737	3867.539	-832272.949	-9.722E-05	1.063E-03
8586.400	2.664	3868.702	-832270.813	-1.063E-04	9.825E-04
8587.400	2.757	3869.766	-832268.066	-8.506E-05	9.600E-04
8588.400	2.766	3870.777	-832265.320	-1.021E-04	1.043E-03
8589.400	2.912	3871.569	-832262.451	-1.075E-04	1.029E-03
8590.400	2.873	3872.269	-832259.705	-1.069E-04	9.649E-04
8591.400	2.791	3872.961	-832256.958	-1.118E-04	1.028E-03
8592.400	2.708	3873.533	-832254.211	-1.057E-04	1.077E-03
8593.400	2.941	3874.037	-832251.343	-1.015E-04	1.119E-03
8594.400	2.732	3874.573	-832248.596	-1.003E-04	1.040E-03
8595.400	3.000	3875.041	-832245.789	-1.021E-04	1.097E-03
8596.400	3.044	3875.442	-832242.859	-8.506E-05	1.024E-03
8597.400	2.864	3875.831	-832239.990	-1.106E-04	1.018E-03
8598.400	2.859	3876.199	-832237.122	-1.063E-04	1.009E-03
8599.400	2.946	3876.549	-832234.253	-1.027E-04	1.035E-03
8600.400	2.825	3876.839	-832231.262	-1.112E-04	1.085E-03
8601.400	2.893	3877.153	-832228.333	-1.063E-04	9.527E-04
8602.400	3.029	3877.402	-832225.403	-9.479E-05	9.223E-04
8603.400	2.873	3877.702	-832222.534	-9.053E-05	9.691E-04
8604.400	3.039	3877.949	-832219.604	-1.051E-04	1.020E-03
8605.400	2.990	3878.136	-832216.736	-1.045E-04	1.027E-03
8606.400	3.010	3878.445	-832213.745	-1.015E-04	9.758E-04
8607.400	2.810	3878.648	-832210.815	-1.069E-04	9.831E-04
8608.400	3.000	3878.883	-832207.825	-1.106E-04	9.144E-04
8609.400	2.888	3879.092	-832204.956	-1.045E-04	8.385E-04
8610.400	2.796	3879.269	-832202.026	-9.175E-05	1.060E-03
8611.400	2.737	3879.435	-832199.280	-9.296E-05	9.946E-04
8612.400	2.674	3879.611	-832196.533	-9.843E-05	1.058E-03
8613.400	2.844	3879.744	-832193.787	-9.904E-05	1.004E-03
8614.400	2.591	3879.904	-832191.101	-1.033E-04	1.023E-03
8615.400	2.976	3880.083	-832188.293	-8.506E-05	1.051E-03
8616.400	2.805	3880.212	-832185.547	-1.027E-04	1.034E-03
8617.400	2.776	3880.363	-832182.800	-1.027E-04	1.014E-03
8618.400	2.635	3880.455	-832180.054	-1.130E-04	1.057E-03
8619.400	2.708	3880.609	-832177.185	-1.027E-04	1.173E-03
8620.400	2.937	3880.749	-832174.316	-9.904E-05	1.012E-03
8621.400	2.805	3880.812	-832171.509	-9.661E-05	1.030E-03
8622.400	2.830	3880.952	-832168.762	-1.063E-04	1.029E-03
8623.400	2.859	3881.066	-832165.894	-1.173E-04	1.018E-03
8624.400	2.601	3881.150	-832163.025	-8.567E-05	1.074E-03
8625.400	2.781	3881.233	-832160.278	-9.418E-05	1.066E-03
8626.400	2.766	3881.355	-832157.532	-1.033E-04	9.655E-04
8627.400	2.791	3881.433	-832154.785	-1.069E-04	1.017E-03
8628.400	2.869	3881.513	-832152.039	-9.114E-05	9.703E-04
8629.400	2.903	3881.609	-832149.170	-1.045E-04	8.768E-04
8630.400	2.888	3881.702	-832146.423	-9.418E-05	9.436E-04
8631.400	2.859	3881.801	-832143.616	-1.069E-04	9.880E-04
8632.400	2.757	3881.823	-832140.869	-9.235E-05	1.028E-03
8633.400	2.752	3881.934	-832138.062	-1.003E-04	1.116E-03
8634.400	2.907	3881.982	-832135.254	-1.051E-04	1.044E-03
8635.400	2.844	3882.067	-832132.446	-1.021E-04	9.351E-04
8636.400	2.757	3882.138	-832129.639	-1.100E-04	9.837E-04
8637.400	2.805	3882.183	-832126.892	-9.235E-05	9.734E-04
8638.400	2.859	3882.268	-832124.084	-1.009E-04	1.088E-03
8639.400	2.844	3882.331	-832121.338	-1.051E-04	1.017E-03
8640.400	2.830	3882.356	-832118.591	-1.112E-04	9.892E-04
8641.400	2.825	3882.418	-832115.784	-1.051E-04	1.142E-03
8642.400	2.883	3882.475	-832113.037	-9.722E-05	9.709E-04
8643.400	2.815	3882.532	-832110.291	-1.112E-04	1.037E-03
8644.400	2.849	3882.578	-832107.483	-9.296E-05	1.066E-03
8645.400	2.800	3882.633	-832104.675	-1.021E-04	1.066E-03
8646.400	2.941	3882.673	-832101.685	-9.479E-05	1.046E-03
8647.400	2.737	3882.722	-832098.877	-1.003E-04	1.140E-03
8648.400	2.912	3882.752	-832096.069	-1.051E-04	1.071E-03
8649.400	2.893	3882.784	-832093.201	-9.904E-05	1.049E-03
8650.400	2.990	3882.866	-832090.271	-1.082E-04	1.061E-03
8651.400	2.976	3882.874	-832087.402	-1.027E-04	1.054E-03
8652.400	3.102	3882.938	-832084.473	-1.088E-04	1.085E-03
8653.400	2.898	3882.960	-832081.604	-9.418E-05	1.161E-03
8654.400	2.830	3883.013	-832078.674	-1.075E-04	1.037E-03
8655.400	2.835	3883.032	-832075.745	-1.003E-04	9.314E-04
8656.400	2.835	3883.081	-832072.937	-1.009E-04	1.102E-03
8657.400	2.810	3883.070	-832070.007	-1.130E-04	9.898E-04
8658.400	2.951	3883.114	-832067.078	-8.810E-05	8.579E-04
8659.400	2.951	3883.195	-832064.087	-1.009E-04	9.873E-04
8660.400	2.873	3883.191	-832061.096	-9.175E-05	9.971E-04
8661.400	2.995	3883.243	-832058.044	-1.021E-04	9.636E-04
8662.400	3.029	3883.259	-832054.993	-9.175E-05	9.071E-04
8663.400	3.068	3883.311	-832051.941	-9.722E-05	1.119E-03
8664.400	3.073	3883.327	-832049.011	-1.027E-04	9.685E-04
8665.400	3.092	3883.379	-832046.021	-9.600E-05	9.588E-04
8666.400	2.927	3883.409	-832042.969	-9.053E-05	1.066E-03
8667.400	2.956	3883.394	-832039.978	-1.179E-04	9.643E-04
8668.400	2.985	3883.461	-832036.926	-1.179E-04	1.161E-03
8669.400	2.995	3883.461	-832033.936	-1.027E-04	1.036E-03
8670.400	3.029	3883.514	-832030.945	-1.027E-04	1.017E-03
8671.400	2.927	3883.499	-832028.015	-1.015E-04	9.193E-04
8672.400	2.937	3883.549	-832024.963	-1.057E-04	1.060E-03
8673.400	2.966	3883.549	-832021.973	-9.053E-05	9.558E-04
8674.400	2.922	3883.588	-832018.921	-1.100E-04	1.070E-03
8675.400	2.985	3883.629	-832015.930	-1.039E-04	9.430E-04
8676.400	3.024	3883.621	-832012.878	-9.661E-05	1.052E-03
8677.400	3.048	3883.626	-832009.888	-9.235E-05	1.042E-03
8678.400	2.835	3883.647	-832007.019	-8.567E-05	1.037E-03
8679.400	2.951	3883.694	-832004.211	-1.142E-04	1.018E-03
8680.400	2.985	3883.701	-832001.343	-1.027E-04	9.679E-04
8681.400	2.946	3883.702	-831998.352	-1.124E-04	9.564E-04
8682.400	2.922	3883.762	-831995.361	-9.539E-05	9.807E-04
8683.400	2.864	3883.782	-831992.432	-1.136E-04	1.083E-03
8684.400	2.946	3883.808	-831989.441	-1.027E-04	1.046E-03
8685.400	3.039	3883.835	-831986.450	-9.357E-05	1.006E-03
8686.400	2.907	3883.835	-831983.398	-1.203E-04	1.063E-03
8687.400	2.888	3883.876	-831980.469	-9.904E-05	1.006E-03
8688.400	2.956	3883.831	-831977.539	-1.100E-04	1.034E-03
8689.400	3.087	3883.891	-831974.548	-1.130E-04	1.055E-03
8690.400	2.927	3883.874	-831971.497	-1.015E-04	1.036E-03
8691.400	3.063	3883.890	-831968.506	-1.009E-04	1.015E-03
8692.400	2.912	3883.931	-831965.454	-1.021E-04	1.024E-03
8693.400	2.985	3883.951	-831962.524	-1.173E-04	1.022E-03
8694.400	3.005	3883.918	-831959.656	-9.904E-05	1.004E-03
8695.400	2.869	3883.922	-831956.787	-1.003E-04	1.044E-03
8696.400	2.883	3883.945	-831953.979	-1.003E-04	9.916E-04
8697.400	2.786	3883.944	-831951.111	-9.418E-05	1.034E-03
8698.400	2.956	3883.996	-831948.120	-1.039E-04	1.042E-03
8699.400	2.762	3884.023	-831945.251	-9.843E-05	1.123E-03
8700.400	2.971	3884.051	-831942.200	-9.843E-05	1.078E-03
8701.400	2.927	3884.042	-831939.270	-1.003E-04	1.047E-03
8702.400	3.058	3884.054	-831936.340	-9.479E-05	9.764E-04
8703.400	2.888	3884.078	-831933.411	-1.045E-04	8.974E-04
8704.400	2.830	3884.067	-831930.481	-1.082E-04	1.068E-03
8704.600	2499.846	4049.110	-831430.542	-1.003E-04	1.043E-03
8704.800	2501.207	4050.611	-830930.298	-1.112E-04	8.798E-04
8705.000	2501.611	4051.829	-830429.993	-8.810E-05	9.722E-04
8705.200	2501.980	4052.877	-829929.626	-1.185E-04	1.051E-03
8705.600	2502.082	4054.754	-828928.772	-9.843E-05	9.558E-04
8706.000	2502.369	4056.392	-827927.856	-1.045E-04	1.095E-03
8706.400	2502.175	4057.890	-826927.002	-9.965E-05	9.709E-04
8706.800	2502.213	4059.292	-825926.086	-1.136E-04	9.053E-04
8707.200	2502.379	4060.638	-824925.110	-1.100E-04	1.094E-03
8707.600	2502.481	4061.862	-823924.133	-1.082E-04	9.454E-04
8708.000	2502.403	4063.035	-822923.157	-1.015E-04	9.381E-04
8708.400	2502.461	4064.173	-821922.180	-1.148E-04	8.081E-04
8708.800	2502.316	4065.235	-820921.204	-9.357E-05	1.020E-03
8709.200	2502.418	4066.245	-819920.227	-1.179E-04	1.069E-03
8709.800	2502.539	4067.733	-818418.762	-1.021E-04	9.843E-04
8710.400	2502.505	4069.114	-816917.297	-1.069E-04	1.017E-03
8711.000	2502.355	4070.487	-815415.833	-1.015E-04	1.049E-03
8711.600	2502.320	4071.754	-813914.368	-1.100E-04	9.515E-04
8712.200	2502.554	4072.966	-812412.903	-1.063E-04	9.564E-04
8712.800	2502.340	4074.120	-810911.438	-1.027E-04	1.013E-03
8713.400	2502.486	4075.237	-809409.973	-1.045E-04	9.855E-04
8714.000	2502.622	4076.301	-807908.386	-9.904E-05	9.861E-04
8714.600	2502.491	4077.394	-806406.860	-1.191E-04	9.861E-04
8715.200	2502.491	4078.385	-804905.334	-1.191E-04	9.564E-04
8715.400	4.891	3914.373	-804904.358	-1.227E-04	1.080E-03
8715.800	3.374	3912.671	-804902.954	-1.088E-04	1.111E-03
8716.200	3.170	3911.497	-804901.672	-9.114E-05	9.126E-04
8716.800	3.175	3910.301	-804899.780	-1.051E-04	1.041E-03
8717.400	3.073	3909.256	-804897.949	-9.843E-05	9.971E-04
8718.200	3.044	3908.120	-804895.508	-9.479E-05	9.041E-04
8719.200	3.068	3906.958	-804892.456	-1.033E-04	9.928E-04
8720.200	2.893	3905.954	-804889.465	-1.179E-04	1.036E-03
8721.200	2.937	3905.087	-804886.475	-1.130E-04	9.205E-04
8722.200	2.971	3904.324	-804883.484	-1.009E-04	1.037E-03
8723.200	3.058	3903.631	-804880.493	-1.106E-04	1.041E-03
8724.200	2.800	3903.021	-804877.502	-1.082E-04	1.066E-03
8725.200	3.000	3902.440	-804874.512	-1.027E-04	9.612E-04
8726.200	3.092	3901.918	-804871.521	-8.992E-05	1.057E-03
8727.200	2.805	3901.448	-804868.530	-1.039E-04	1.000E-03
8728.200	2.956	3900.995	-804865.601	-1.027E-04	9.904E-04
8729.200	3.087	3900.606	-804862.549	-1.051E-04	1.113E-03
8730.200	2.854	3900.198	-804859.619	-1.015E-04	1.002E-03
8731.200	2.781	3899.875	-804856.812	-1.003E-04	1.012E-03
8732.200	2.912	3899.527	-804853.760	-9.722E-05	1.047E-03
8733.200	2.907	3899.229	-804850.830	-1.021E-04	1.134E-03
8734.200	2.966	3898.925	-804847.839	-8.081E-05	1.028E-03
8735.200	2.878	3898.637	-804845.032	-9.418E-05	8.670E-04
8736.200	2.718	3898.423	-804842.102	-9.418E-05	9.825E-04
8737.200	2.898	3898.170	-804839.111	-1.252E-04	8.676E-04
8738.200	3.010	3897.955	-804836.243	-1.051E-04	1.021E-03
8739.200	3.058	3897.748	-804833.252	-1.167E-04	9.691E-04
8740.200	2.980	3897.492	-804830.200	-9.114E-05	1.072E-03
8741.200	2.888	3897.332	-804827.209	-9.418E-05	1.123E-03
8742.200	2.873	3897.118	-804824.402	-9.235E-05	1.057E-03
8743.200	2.869	3896.957	-804821.594	-1.045E-04	9.807E-04
8744.200	3.019	3896.816	-804818.726	-9.782E-05	9.697E-04
8745.200	2.985	3896.648	-804815.796	-1.142E-04	1.001E-03
8746.200	2.980	3896.497	-804812.927	-9.418E-05	1.024E-03
8747.200	2.830	3896.386	-804810.059	-1.069E-04	9.436E-04
8748.200	2.898	3896.243	-804807.129	-1.039E-04	1.010E-03
8749.200	2.810	3896.150	-804804.260	-7.413E-05	1.143E-03
8750.200	3.024	3895.999	-804801.392	-8.628E-05	1.101E-03
8751.200	2.898	3895.865	-804798.523	-9.479E-05	9.801E-04
8752.200	2.903	3895.802	-804795.715	-1.063E-04	9.983E-04
8753.200	2.980	3895.669	-804792.664	-9.600E-05	1.035E-03
8754.200	2.718	3895.602	-804789.917	-8.749E-05	1.027E-03
8755.200	2.805	3895.428	-804787.109	-1.173E-04	8.847E-04
8756.200	2.810	3895.386	-804784.302	-9.175E-05	1.106E-03
8757.200	2.888	3895.277	-804781.494	-1.027E-04	1.040E-03
8758.200	2.903	3895.240	-804778.625	-1.130E-04	1.147E-03
8759.200	2.728	3895.143	-804775.757	-9.235E-05	9.697E-04
8760.200	2.898	3895.044	-804772.888	-1.039E-04	1.074E-03
8761.200	2.771	3894.989	-804770.020	-8.506E-05	9.624E-04
8762.200	2.849	3894.954	-804767.151	-8.263E-05	9.916E-04
8763.200	2.922	3894.822	-804764.160	-9.661E-05	9.655E-04
8764.200	3.121	3894.755	-804761.169	-1.106E-04	9.600E-04
8765.200	2.937	3894.716	-804758.240	-9.965E-05	9.588E-04
8766.200	3.005	3894.686	-804755.249	-8.628E-05	9.187E-04
8767.200	2.932	3894.615	-804752.197	-9.722E-05	1.054E-03
8768.200	2.854	3894.541	-804749.268	-1.088E-04	9.715E-04
8769.200	2.956	3894.468	-804746.277	-9.661E-05	1.015E-03
8770.200	2.956	3894.440	-804743.347	-1.051E-04	9.849E-04
8771.200	2.898	3894.415	-804740.356	-9.357E-05	1.023E-03
8772.200	3.058	3894.373	-804737.305	-8.810E-05	9.655E-04
8773.200	2.932	3894.304	-804734.314	-1.118E-04	1.051E-03
8774.200	3.000	3894.256	-804731.323	-1.009E-04	1.043E-03
8775.200	2.912	3894.196	-804728.455	-1.100E-04	1.034E-03
8776.200	2.961	3894.192	-804725.403	-1.009E-04	1.131E-03
8777.200	3.029	3894.087	-804722.473	-9.661E-05	1.004E-03
8778.200	2.946	3894.052	-804719.421	-1.118E-04	1.073E-03
8779.200	3.005	3894.039	-804716.431	-1.003E-04	1.079E-03
8780.200	3.010	3893.980	-804713.440	-1.088E-04	1.006E-03
8781.200	2.849	3893.978	-804710.632	-8.385E-05	9.995E-04
8782.200	2.776	3893.930	-804707.764	-1.057E-04	1.040E-03
8783.200	2.893	3893.904	-804704.834	-1.130E-04	1.005E-03
8784.200	2.966	3893.882	-804702.026	-9.782E-05	1.065E-03
8785.200	2.980	3893.831	-804699.158	-8.992E-05	1.061E-03
8786.200	2.684	3893.780	-804696.228	-1.075E-04	1.012E-03
8787.200	2.941	3893.754	-804693.237	-1.033E-04	9.776E-04
8788.200	2.932	3893.730	-804690.247	-9.722E-05	9.989E-04
8789.200	3.024	3893.664	-804687.256	-9.965E-05	9.952E-04
8790.200	2.873	3893.656	-804684.265	-1.009E-04	8.944E-04
8791.200	2.961	3893.664	-804681.213	-9.782E-05	1.013E-03
8792.200	2.980	3893.641	-804678.223	-1.015E-04	9.576E-04
8793.200	2.849	3893.598	-804675.232	-9.965E-05	9.223E-04
8794.200	2.922	3893.582	-804672.241	-1.094E-04	9.758E-04
8795.200	3.014	3893.564	-804669.189	-1.082E-04	1.051E-03
8796.200	3.024	3893.544	-804666.138	-9.782E-05	1.042E-03
8797.200	2.971	3893.490	-804663.147	-1.027E-04	1.003E-03
8798.200	3.000	3893.474	-804660.156	-1.069E-04	1.080E-03
8799.200	2.937	3893.483	-804657.227	-8.385E-05	1.040E-03
8800.200	2.951	3893.460	-804654.358	-9.904E-05	9.770E-04
8801.200	2.980	3893.422	-804651.306	-1.082E-04	1.058E-03
8802.200	3.019	3893.391	-804648.376	-1.045E-04	1.020E-03
8803.200	2.878	3893.366	-804645.447	-9.904E-05	1.003E-03
8804.200	2.966	3893.359	-804642.578	-1.112E-04	1.013E-03
8805.200	2.864	3893.301	-804639.648	-1.106E-04	1.114E-03
8806.200	2.859	3893.317	-804636.658	-1.136E-04	1.092E-03
8807.200	2.742	3893.295	-804633.789	-1.063E-04	1.114E-03
8808.200	3.034	3893.274	-804630.798	-1.045E-04	1.004E-03
8809.200	2.941	3893.265	-804627.808	-9.175E-05	1.154E-03
8810.200	2.898	3893.257	-804624.878	-9.843E-05	1.101E-03
8811.200	3.029	3893.233	-804621.887	-9.114E-05	1.058E-03
8812.200	2.932	3893.203	-804618.835	-1.124E-04	1.047E-03
8813.200	3.019	3893.184	-804615.784	-8.628E-05	9.691E-04
8814.200	2.976	3893.178	-804612.732	-8.567E-05	1.065E-03
8815.200	3.010	3893.141	-804609.741	-9.418E-05	9.971E-04
8816.200	2.912	3893.105	-804606.750	-9.904E-05	1.046E-03
8817.200	3.029	3893.101	-804603.699	-7.656E-05	1.065E-03
8818.200	3.097	3893.080	-804600.708	-1.118E-04	8.822E-04
8819.200	3.073	3893.097	-804597.778	-8.932E-05	1.041E-03
8820.200	2.893	3893.059	-804594.910	-1.075E-04	1.076E-03
8821.200	2.946	3893.081	-804591.919	-1.167E-04	9.977E-04
8822.200	2.922	3893.051	-804588.867	-1.173E-04	9.892E-04
8823.200	3.107	3893.040	-804585.876	-8.628E-05	1.097E-03
8824.200	2.839	3893.044	-804582.947	-8.506E-05	1.016E-03
8825.200	2.985	3892.991	-804580.017	-1.094E-04	9.728E-04
8826.200	2.781	3893.018	-804577.026	-9.843E-05	1.095E-03
8827.200	2.937	3892.973	-804574.158	-1.033E-04	9.649E-04
8828.200	2.927	3893.002	-804571.289	-9.235E-05	1.035E-03
8829.200	3.029	3892.952	-804568.237	-9.782E-05	1.079E-03
8830.200	2.995	3892.962	-804565.186	-1.021E-04	1.124E-03
8831.200	3.063	3892.896	-804562.195	-8.932E-05	1.044E-03
8832.200	3.014	3892.941	-804559.265	-1.270E-04	1.075E-03
8833.200	2.946	3892.948	-804556.213	-9.722E-05	1.160E-03
8834.200	3.116	3892.905	-804553.223	-1.203E-04	1.007E-03
8835.200	2.723	3892.897	-804550.476	-1.100E-04	9.387E-04
8835.400	-2494.298	3728.326	-805049.316	-8.932E-05	9.934E-04
8835.600	-2495.701	3726.833	-805548.462	-9.539E-05	1.034E-03
8835.800	-2496.063	3725.625	-806047.668	-1.015E-04	1.045E-03
8836.000	-2496.301	3724.562	-806546.936	-1.021E-04	1.069E-03
8836.200	-2496.382	3723.545	-807046.204	-9.479E-05	9.898E-04
8836.600	-2496.479	3721.771	-808044.739	-1.015E-04	9.163E-04
8837.000	-2496.545	3720.192	-809043.335	-1.015E-04	9.807E-04
8837.400	-2496.486	3718.673	-810041.870	-9.904E-05	9.679E-04
8837.800	-2496.467	3717.216	-811040.405	-8.810E-05	9.667E-04
8838.200	-2496.717	3715.816	-812039.063	-1.021E-04	1.053E-03
8838.600	-2496.564	3714.474	-813037.659	-1.118E-04	1.020E-03
8839.000	-2496.574	3713.189	-814036.316	-8.446E-05	1.049E-03
8839.400	-2496.642	3711.931	-815034.973	-9.782E-05	1.047E-03
8839.800	-2496.627	3710.702	-816033.630	-9.418E-05	1.023E-03
8840.200	-2496.620	3709.466	-817032.288	-7.777E-05	1.056E-03
8840.600	-2496.583	3708.347	-818030.945	-8.689E-05	9.959E-04
8841.000	-2496.744	3707.211	-819029.602	-8.263E-05	1.089E-03
8841.400	-2496.795	3705.984	-820028.259	-1.009E-04	1.022E-03
8841.800	-2496.737	3704.965	-821026.917	-9.296E-05	9.715E-04
8842.200	-2496.756	3703.885	-822025.574	-8.324E-05	9.873E-04
8842.600	-2496.744	3702.802	-823024.231	-8.689E-05	1.033E-03
8843.000	-2496.727	3701.746	-824022.949	-8.749E-05	9.084E-04
8843.400	-2496.817	3700.695	-825021.729	-9.418E-05	9.904E-04
8843.800	-2496.829	3699.693	-826020.447	-1.154E-04	1.068E-03
8844.200	-2496.722	3698.687	-827019.104	-8.871E-05	9.533E-04
8844.800	-2496.751	3697.180	-828517.090	-9.053E-05	1.054E-03
8845.400	-2496.574	3695.736	-830015.076	-9.539E-05	9.485E-04
8845.800	-2496.776	3694.735	-831013.733	-1.033E-04	1.020E-03
8846.000	-2496.702	3694.295	-831513.062	-1.106E-04	9.594E-04
8846.200	1.055	3859.152	-831512.878	-1.173E-04	9.837E-04
8846.400	2.091	3860.260	-831512.451	-9.661E-05	1.017E-03
8846.800	2.455	3861.789	-831511.475	-9.722E-05	9.880E-04
8847.200	2.436	3862.916	-831510.437	-1.203E-04	9.685E-04
8847.800	2.747	3864.250	-831508.789	-1.069E-04	1.004E-03
8848.400	2.825	3865.430	-831507.080	-9.296E-05	1.001E-03
8849.000	2.815	3866.452	-831505.371	-9.175E-05	9.156E-04
8849.800	2.907	3867.526	-831502.991	-1.118E-04	1.058E-03
8850.800	3.019	3868.731	-831500.061	-1.039E-04	9.606E-04
8851.800	2.927	3869.803	-831497.192	-1.094E-04	9.630E-04
8852.800	2.854	3870.696	-831494.385	-1.021E-04	1.013E-03
8853.800	2.888	3871.514	-831491.638	-1.033E-04	9.770E-04
8854.800	2.864	3872.226	-831488.892	-1.063E-04	1.054E-03
8855.800	2.946	3872.911	-831485.962	-1.033E-04	1.012E-03
8856.800	2.854	3873.492	-831483.215	-1.015E-04	9.466E-04
8857.800	2.844	3874.046	-831480.408	-9.235E-05	9.418E-04
8858.800	2.742	3874.535	-831477.661	-9.539E-05	1.027E-03
8859.800	2.903	3875.026	-831474.670	-1.015E-04	1.077E-03
8860.800	2.912	3875.502	-831471.680	-1.021E-04	9.424E-04
8861.800	2.903	3875.901	-831468.811	-1.045E-04	9.873E-04
8862.800	2.839	3876.254	-831465.942	-1.094E-04	1.030E-03
8863.800	2.937	3876.641	-831463.013	-1.246E-04	1.043E-03
8864.800	2.961	3876.990	-831460.022	-1.075E-04	9.819E-04
8865.800	2.903	3877.278	-831457.031	-1.069E-04	9.898E-04
8866.800	2.898	3877.592	-831454.163	-1.063E-04	1.095E-03
8867.800	2.976	3877.864	-831451.233	-1.106E-04	1.059E-03
8868.800	3.000	3878.142	-831448.181	-9.418E-05	1.003E-03
8869.800	2.912	3878.407	-831445.251	-1.021E-04	9.722E-04
8870.800	2.990	3878.614	-831442.261	-1.009E-04	1.003E-03
8871.800	2.995	3878.854	-831439.270	-1.075E-04	9.880E-04
8872.800	3.024	3879.079	-831436.340	-1.112E-04	1.040E-03
8873.800	2.927	3879.289	-831433.411	-1.075E-04	1.003E-03
8874.800	2.976	3879.488	-831430.542	-9.296E-05	9.849E-04
8875.800	2.898	3879.682	-831427.673	-1.106E-04	1.024E-03
8876.800	3.024	3879.845	-831424.744	-1.142E-04	1.004E-03
8877.800	2.883	3880.060	-831421.875	-1.027E-04	9.855E-04
8878.800	2.912	3880.179	-831418.945	-1.003E-04	1.030E-03
8879.800	2.786	3880.367	-831416.016	-9.722E-05	1.032E-03
8880.800	2.825	3880.494	-831413.086	-1.094E-04	9.740E-04
8881.800	2.927	3880.632	-831410.278	-9.600E-05	9.764E-04
8882.800	2.873	3880.744	-831407.410	-8.628E-05	9.952E-04
8883.800	2.791	3880.900	-831404.663	-1.033E-04	8.944E-04
8884.800	2.951	3881.034	-831401.855	-1.148E-04	1.037E-03
8885.800	2.781	3881.166	-831399.048	-1.209E-04	9.849E-04
8886.800	2.995	3881.265	-831396.179	-1.075E-04	1.097E-03
8887.800	2.893	3881.333	-831393.250	-8.932E-05	1.061E-03
8888.800	2.883	3881.441	-831390.442	-1.063E-04	1.035E-03
8889.800	2.937	3881.570	-831387.451	-1.045E-04	1.119E-03
8890.800	2.956	3881.656	-831384.460	-1.197E-04	1.202E-03
8891.800	2.961	3881.751	-831381.592	-9.418E-05	9.205E-04
8892.800	2.976	3881.847	-831378.662	-1.033E-04	1.040E-03
8893.800	2.835	3881.947	-831375.671	-9.904E-05	1.071E-03
8894.800	3.000	3882.044	-831372.681	-9.843E-05	1.070E-03
8895.800	2.815	3882.093	-831369.873	-9.782E-05	1.056E-03
8896.800	2.980	3882.189	-831366.882	-1.082E-04	1.000E-03
8897.800	3.097	3882.255	-831363.953	-9.904E-05	1.062E-03
8898.800	2.898	3882.303	-831360.962	-1.021E-04	1.020E-03
8899.800	2.869	3882.407	-831358.093	-1.009E-04	9.886E-04
8900.800	2.888	3882.465	-831355.286	-1.112E-04	1.011E-03
8901.800	2.859	3882.534	-831352.356	-1.009E-04	1.100E-03
8902.800	2.961	3882.591	-831349.487	-1.088E-04	1.009E-03
8903.800	2.898	3882.651	-831346.680	-1.021E-04	1.016E-03
8904.800	3.039	3882.713	-831343.750	-8.810E-05	8.798E-04
8905.800	3.073	3882.750	-831340.881	-9.600E-05	8.999E-04
8906.800	2.922	3882.823	-831338.013	-9.904E-05	9.284E-04
8907.800	2.684	3882.883	-831335.266	-9.722E-05	9.150E-04
8908.800	2.776	3882.909	-831332.458	-9.175E-05	1.044E-03
8909.800	2.844	3882.979	-831329.712	-1.142E-04	9.497E-04
8910.800	2.898	3883.032	-831326.965	-1.088E-04	9.096E-04
8911.800	2.971	3883.080	-831324.158	-8.992E-05	1.034E-03
8912.800	2.859	3883.131	-831321.350	-1.088E-04	1.093E-03
8913.800	2.893	3883.168	-831318.542	-1.033E-04	9.776E-04
8914.800	2.966	3883.196	-831315.552	-1.161E-04	1.020E-03
8915.800	2.859	3883.235	-831312.622	-1.033E-04	1.045E-03
8916.800	2.781	3883.302	-831309.875	-1.039E-04	1.012E-03
8917.800	2.854	3883.338	-831307.007	-9.782E-05	1.040E-03
8918.800	2.723	3883.361	-831304.138	-9.600E-05	1.001E-03
8919.800	2.893	3883.399	-831301.208	-9.600E-05	1.028E-03
8920.800	2.757	3883.418	-831298.279	-1.057E-04	9.685E-04
8921.800	2.776	3883.471	-831295.471	-1.088E-04	1.156E-03
8922.800	2.747	3883.452	-831292.725	-9.479E-05	9.898E-04
8923.800	2.839	3883.528	-831289.917	-1.088E-04	1.074E-03
8924.800	2.708	3883.543	-831287.170	-1.045E-04	9.576E-04
8925.800	2.776	3883.602	-831284.424	-1.027E-04	9.752E-04
8926.800	2.786	3883.642	-831281.616	-1.075E-04	8.974E-04
8927.800	2.786	3883.654	-831278.809	-1.082E-04	1.093E-03
8928.800	2.786	3883.690	-831276.062	-9.782E-05	1.095E-03
8929.800	2.771	3883.695	-831273.254	-1.082E-04	1.051E-03
8930.800	2.723	3883.710	-831270.447	-1.118E-04	9.697E-04
8931.800	2.800	3883.735	-831267.639	-1.015E-04	1.013E-03
8932.800	2.912	3883.801	-831264.832	-1.082E-04	8.367E-04
8933.800	2.869	3883.804	-831262.085	-1.112E-04	1.004E-03
8934.800	2.728	3883.851	-831259.216	-9.600E-05	9.673E-04
8935.800	2.820	3883.866	-831256.470	-1.112E-04	9.892E-04
8936.800	2.932	3883.846	-831253.601	-9.661E-05	1.080E-03
8937.800	2.859	3883.877	-831250.793	-1.094E-04	9.922E-04
8938.800	2.689	3883.894	-831247.986	-1.027E-04	9.746E-04
8939.800	2.776	3883.946	-831245.178	-8.081E-05	1.059E-03
8940.800	2.728	3884.021	-831242.371	-1.057E-04	1.045E-03
8941.800	2.878	3883.989	-831239.624	-1.063E-04	9.448E-04
8942.800	2.747	3884.009	-831236.816	-1.003E-04	1.095E-03
8943.800	2.791	3884.005	-831234.070	-1.082E-04	9.406E-04
8944.800	2.839	3884.041	-831231.323	-9.661E-05	1.024E-03
8945.800	2.742	3884.089	-831228.577	-1.021E-04	1.003E-03
8946.800	2.786	3884.108	-831225.830	-1.033E-04	1.201E-03
8947.800	2.703	3884.087	-831223.145	-1.051E-04	9.636E-04
8948.800	2.796	3884.123	-831220.398	-1.167E-04	1.071E-03
8949.800	2.640	3884.113	-831217.651	-1.136E-04	9.047E-04
8950.800	2.951	3884.134	-831214.783	-8.749E-05	1.033E-03
8951.800	2.708	3884.161	-831211.853	-1.094E-04	9.472E-04
8952.800	2.771	3884.179	-831209.045	-9.357E-05	1.170E-03
8953.800	2.946	3884.219	-831206.177	-1.094E-04	9.606E-04
8954.800	2.781	3884.224	-831203.430	-1.033E-04	1.030E-03
8955.800	2.844	3884.238	-831200.623	-9.965E-05	1.069E-03
8956.800	2.747	3884.238	-831197.876	-1.142E-04	9.308E-04
8957.800	2.859	3884.286	-831195.007	-1.003E-04	9.017E-04
8958.800	2.864	3884.283	-831192.017	-1.118E-04	1.015E-03
8959.800	3.029	3884.311	-831189.026	-8.203E-05	1.052E-03
8960.800	2.791	3884.321	-831186.035	-1.045E-04	8.792E-04
8961.800	2.859	3884.326	-831183.105	-1.075E-04	9.509E-04
8962.800	2.873	3884.346	-831180.115	-1.197E-04	9.849E-04
8963.800	2.869	3884.366	-831177.246	-9.175E-05	1.092E-03
8964.800	3.044	3884.394	-831174.255	-1.106E-04	9.412E-04
8965.800	3.005	3884.414	-831171.204	-1.106E-04	9.369E-04
8966.000	2.951	3884.418	-831170.593	-1.082E-04	9.327E-04
