time /s	I /mA	E /mV	Q /mC	An In 1	An In 2	Rs	Cs	Zab	Phase
7512.200	-11.533	3477.212	-1178948.975	-5.833E-05	9.831E-04
7513.200	-11.350	3477.208	-1178960.449	-5.225E-05	1.015E-03
7514.200	-11.486	3477.213	-1178971.924	-4.739E-05	9.831E-04
7515.200	-11.581	3477.206	-1178983.521	-6.076E-05	1.156E-03
7516.200	-11.447	3477.211	-1178995.117	-5.954E-05	1.148E-03
7517.200	-11.462	3477.172	-1179006.714	-4.739E-05	1.105E-03
7518.200	-11.426	3477.222	-1179018.311	-6.015E-05	9.697E-04
7519.200	-11.294	3477.216	-1179029.907	-5.772E-05	1.065E-03
7520.200	-11.280	3477.225	-1179041.382	-5.529E-05	9.898E-04
7521.200	-11.518	3477.211	-1179052.979	-7.230E-05	1.042E-03
7522.200	-11.241	3477.242	-1179064.331	-6.258E-05	1.014E-03
7523.200	-11.428	3477.208	-1179075.806	-5.408E-05	1.026E-03
7524.200	-11.161	3477.248	-1179087.036	-7.230E-05	9.922E-04
7525.200	-11.399	3477.214	-1179098.389	-6.927E-05	1.165E-03
7526.200	-11.328	3477.223	-1179109.619	-4.618E-05	1.211E-03
7527.200	-11.241	3477.249	-1179120.972	-6.015E-05	1.054E-03
7528.200	-11.387	3477.235	-1179132.324	-5.043E-05	1.180E-03
7529.200	-11.233	3477.225	-1179143.677	-4.253E-05	1.108E-03
7530.200	-11.411	3477.223	-1179155.273	-4.861E-05	1.037E-03
7531.200	-11.224	3477.177	-1179166.504	-5.043E-05	1.154E-03
7532.200	-11.389	3477.189	-1179178.101	-4.800E-05	1.200E-03
7533.200	-11.467	3477.186	-1179189.697	-6.197E-05	1.137E-03
7534.200	-11.374	3477.221	-1179201.172	-5.165E-05	1.032E-03
7535.200	-11.333	3477.219	-1179212.646	-6.319E-05	9.910E-04
7536.200	-11.309	3477.213	-1179223.999	-4.982E-05	1.034E-03
7537.200	-11.314	3477.204	-1179235.352	-5.225E-05	1.131E-03
7538.200	-11.214	3477.194	-1179246.460	-4.192E-05	1.100E-03
7539.200	-11.029	3477.211	-1179257.568	-7.534E-05	1.060E-03
7540.200	-11.236	3477.221	-1179268.555	-5.711E-05	1.054E-03
7541.200	-11.477	3477.227	-1179280.151	-4.922E-05	1.018E-03
7542.200	-11.452	3477.157	-1179291.504	-5.529E-05	1.093E-03
7543.200	-11.124	3477.206	-1179302.979	-6.562E-05	1.119E-03
7544.200	-11.579	3477.237	-1179314.575	-4.861E-05	1.055E-03
7545.200	-11.474	3477.205	-1179326.172	-4.982E-05	1.084E-03
7546.200	-11.374	3477.204	-1179337.769	-6.076E-05	1.107E-03
7547.200	-11.282	3477.216	-1179348.999	-6.441E-05	1.174E-03
7548.200	-11.523	3477.177	-1179360.474	-6.015E-05	1.150E-03
7549.200	-11.355	3477.258	-1179372.070	-3.889E-05	1.179E-03
7550.200	-11.428	3477.228	-1179383.667	-6.015E-05	1.147E-03
7551.200	-11.241	3477.217	-1179395.142	-6.866E-05	1.129E-03
7552.200	-11.472	3477.179	-1179406.738	-4.861E-05	1.174E-03
7553.200	-11.421	3477.201	-1179418.213	-6.076E-05	1.114E-03
7554.200	-11.547	3477.206	-1179429.688	-5.772E-05	1.026E-03
7555.200	-11.265	3477.201	-1179441.162	-4.922E-05	1.200E-03
7556.200	-11.192	3477.151	-1179452.271	-5.590E-05	1.103E-03
7557.200	-11.530	3477.241	-1179463.867	-4.618E-05	1.106E-03
7558.200	-11.401	3477.230	-1179475.464	-6.744E-05	1.145E-03
7559.200	-11.182	3477.239	-1179486.694	-4.861E-05	1.187E-03
7560.200	-11.202	3477.221	-1179497.803	-5.711E-05	1.092E-03
7561.200	-11.168	3477.229	-1179508.789	-6.441E-05	1.122E-03
7562.200	-11.255	3477.222	-1179519.775	-5.529E-05	1.015E-03
7563.200	-11.399	3477.216	-1179530.884	-5.225E-05	1.044E-03
7564.200	-11.506	3477.201	-1179542.358	-6.015E-05	1.152E-03
7565.200	-11.452	3477.208	-1179553.955	-4.922E-05	1.078E-03
7566.200	-11.382	3477.211	-1179565.308	-5.104E-05	9.855E-04
7567.200	-11.494	3477.190	-1179576.660	-7.109E-05	1.038E-03
7568.200	-11.345	3477.205	-1179588.135	-5.833E-05	1.102E-03
7569.200	-11.090	3477.161	-1179599.487	-6.987E-05	1.096E-03
7570.200	-11.367	3477.213	-1179610.596	-6.441E-05	1.063E-03
7571.200	-11.248	3477.168	-1179621.704	-5.954E-05	1.114E-03
7572.200	-11.265	3477.216	-1179632.813	-5.833E-05	1.019E-03
7573.200	-11.221	3477.215	-1179643.799	-6.441E-05	9.606E-04
7574.200	-11.204	3477.222	-1179654.785	-5.104E-05	1.067E-03
7575.200	-11.156	3477.187	-1179665.771	-6.197E-05	1.134E-03
7576.200	-11.100	3477.213	-1179676.758	-5.894E-05	1.094E-03
7577.200	-11.192	3477.229	-1179687.866	-5.347E-05	1.120E-03
7578.200	-11.389	3477.193	-1179699.097	-6.441E-05	1.173E-03
7579.200	-11.409	3477.236	-1179710.449	-4.800E-05	1.077E-03
7580.200	-11.418	3477.184	-1179721.924	-5.711E-05	1.209E-03
7581.200	-11.265	3477.242	-1179732.910	-5.894E-05	1.187E-03
7582.200	-11.209	3477.225	-1179744.019	-6.197E-05	1.071E-03
7583.200	-11.233	3477.231	-1179755.249	-5.104E-05	1.084E-03
7584.200	-11.192	3477.205	-1179766.235	-4.678E-05	1.193E-03
7585.200	-11.309	3477.182	-1179777.344	-6.137E-05	1.164E-03
7586.200	-11.241	3477.182	-1179788.452	-5.468E-05	1.038E-03
7587.200	-11.131	3477.236	-1179799.561	-5.286E-05	1.104E-03
7588.200	-11.316	3477.204	-1179811.035	-5.590E-05	1.067E-03
7589.200	-11.075	3477.216	-1179822.144	-3.889E-05	1.156E-03
7590.200	-11.382	3477.156	-1179833.374	-6.380E-05	1.133E-03
7591.200	-11.289	3477.205	-1179844.482	-4.739E-05	9.138E-04
7592.200	-11.285	3477.205	-1179855.835	-4.375E-05	1.028E-03
7593.200	-11.156	3477.233	-1179866.943	-5.529E-05	1.066E-03
7594.200	-11.178	3477.209	-1179877.930	-5.833E-05	9.302E-04
7595.200	-11.000	3477.219	-1179888.916	-6.076E-05	1.140E-03
7596.200	-10.922	3477.232	-1179899.902	-6.987E-05	1.185E-03
7597.200	-11.195	3477.215	-1179911.011	-7.777E-05	1.054E-03
7598.200	-10.891	3477.185	-1179921.997	-6.258E-05	1.102E-03
7599.200	-11.345	3477.195	-1179933.105	-4.739E-05	1.017E-03
7600.200	-11.061	3477.233	-1179944.092	-5.590E-05	1.009E-03
7601.200	-11.085	3477.191	-1179955.078	-6.076E-05	1.095E-03
7602.200	-11.075	3477.192	-1179966.064	-5.651E-05	1.082E-03
7603.200	-11.093	3477.196	-1179977.051	-5.104E-05	1.126E-03
7604.200	-11.119	3477.191	-1179988.037	-4.922E-05	1.110E-03
7605.200	-11.197	3477.211	-1179999.023	-5.833E-05	1.044E-03
7606.200	-11.165	3477.217	-1180010.010	-6.805E-05	1.148E-03
7607.200	-11.005	3477.194	-1180020.996	-6.319E-05	1.117E-03
7608.200	-10.952	3477.237	-1180031.982	-4.435E-05	1.012E-03
7609.200	-11.163	3477.216	-1180042.969	-6.684E-05	1.084E-03
7610.200	-10.971	3477.234	-1180053.955	-5.286E-05	1.217E-03
7611.200	-10.944	3477.243	-1180064.941	-5.286E-05	1.108E-03
7612.200	-11.272	3477.196	-1180075.928	-5.529E-05	1.075E-03
7613.200	-11.063	3477.219	-1180086.914	-5.711E-05	1.145E-03
7614.200	-10.828	3477.252	-1180097.900	-5.894E-05	9.880E-04
7615.200	-11.078	3477.227	-1180108.887	-5.347E-05	1.057E-03
7616.200	-11.010	3477.224	-1180119.873	-5.651E-05	1.030E-03
7617.200	-11.075	3477.249	-1180130.859	-5.833E-05	1.153E-03
7618.200	-11.233	3477.190	-1180141.846	-6.684E-05	9.594E-04
7619.200	-10.978	3477.239	-1180152.954	-5.590E-05	9.406E-04
7620.200	-11.173	3477.207	-1180163.940	-5.651E-05	1.126E-03
7621.200	-10.971	3477.192	-1180174.927	-7.109E-05	1.079E-03
7622.200	-11.241	3477.131	-1180185.913	-5.408E-05	1.021E-03
7623.200	-11.309	3477.219	-1180197.266	-5.529E-05	9.867E-04
7624.200	-11.333	3477.201	-1180208.618	-5.408E-05	1.094E-03
7625.200	-11.032	3477.205	-1180219.727	-6.137E-05	1.077E-03
7626.200	-11.285	3477.209	-1180230.713	-5.590E-05	1.088E-03
7627.200	-11.207	3477.212	-1180242.065	-6.684E-05	1.026E-03
7628.200	-11.392	3477.230	-1180253.418	-5.043E-05	1.123E-03
7629.200	-11.372	3477.204	-1180264.648	-6.319E-05	1.126E-03
7630.200	-11.285	3477.173	-1180276.001	-5.165E-05	1.085E-03
7631.200	-11.416	3477.218	-1180287.354	-6.684E-05	1.111E-03
7632.200	-11.268	3477.187	-1180298.462	-5.468E-05	1.080E-03
7633.200	-11.333	3477.149	-1180309.814	-5.468E-05	1.001E-03
7634.200	-11.141	3477.195	-1180321.167	-5.651E-05	1.193E-03
7635.200	-11.404	3477.184	-1180332.520	-6.562E-05	1.115E-03
7636.200	-11.051	3477.223	-1180343.506	-6.319E-05	1.059E-03
7637.200	-11.175	3477.183	-1180354.492	-4.861E-05	1.127E-03
7638.200	-11.426	3477.208	-1180365.723	-6.076E-05	1.111E-03
7639.200	-11.061	3477.222	-1180376.953	-5.711E-05	1.063E-03
7640.200	-11.114	3477.205	-1180388.062	-6.015E-05	1.199E-03
7641.200	-11.289	3477.186	-1180399.048	-4.557E-05	1.092E-03
7642.200	-11.229	3477.210	-1180410.278	-6.441E-05	9.940E-04
7643.200	-11.253	3477.182	-1180421.387	-6.441E-05	1.013E-03
7644.200	-11.066	3477.223	-1180432.373	-5.468E-05	1.146E-03
7645.200	-11.102	3477.188	-1180443.359	-7.109E-05	1.057E-03
7646.200	-11.285	3477.185	-1180454.468	-5.954E-05	1.035E-03
7647.200	-11.445	3477.206	-1180465.942	-5.833E-05	1.019E-03
7648.200	-11.263	3477.212	-1180476.929	-6.441E-05	1.020E-03
7649.200	-11.085	3477.244	-1180488.037	-5.711E-05	1.098E-03
7650.200	-11.178	3477.215	-1180499.146	-4.496E-05	1.021E-03
7651.200	-11.165	3477.203	-1180510.254	-6.015E-05	1.010E-03
7652.200	-11.326	3477.206	-1180521.729	-6.866E-05	1.162E-03
7653.200	-11.311	3477.224	-1180532.959	-5.225E-05	1.016E-03
7654.200	-11.090	3477.230	-1180544.067	-6.866E-05	1.035E-03
7655.200	-11.187	3477.199	-1180555.054	-5.833E-05	1.086E-03
7656.200	-11.251	3477.176	-1180566.284	-5.165E-05	1.140E-03
7657.200	-10.842	3477.198	-1180577.271	-5.590E-05	1.015E-03
7658.200	-10.964	3477.201	-1180588.257	-4.375E-05	1.062E-03
7659.200	-10.942	3477.218	-1180599.243	-5.165E-05	1.091E-03
7660.200	-10.937	3477.200	-1180610.229	-4.861E-05	1.092E-03
7661.200	-11.122	3477.232	-1180621.216	-4.922E-05	1.063E-03
7662.200	-11.083	3477.198	-1180632.202	-5.833E-05	1.193E-03
7663.200	-10.956	3477.217	-1180643.188	-6.015E-05	1.108E-03
7664.200	-11.127	3477.179	-1180654.175	-6.684E-05	1.115E-03
7665.200	-11.272	3477.205	-1180665.161	-5.590E-05	1.207E-03
7666.200	-11.078	3477.168	-1180676.147	-6.866E-05	1.190E-03
7667.200	-10.828	3477.232	-1180687.134	-6.076E-05	1.089E-03
7668.200	-10.959	3477.198	-1180698.120	-7.291E-05	1.032E-03
7669.200	-11.207	3477.236	-1180709.106	-5.590E-05	1.121E-03
7670.200	-11.037	3477.159	-1180720.093	-5.651E-05	1.168E-03
7671.200	-10.750	3477.207	-1180731.079	-5.347E-05	1.003E-03
7672.200	-11.061	3477.209	-1180742.065	-5.894E-05	1.117E-03
7673.200	-10.915	3477.236	-1180753.052	-7.352E-05	9.782E-04
7673.600	-11.058	3477.246	-1180757.446	-5.286E-05	1.157E-03
7673.800	2.976	3478.366	-1180756.836	-5.894E-05	1.043E-03
7674.200	2.732	3478.280	-1180755.737	-6.623E-05	1.010E-03
7675.000	2.674	3478.314	-1180753.540	-5.711E-05	1.026E-03
7676.000	2.582	3478.338	-1180750.977	-6.562E-05	1.137E-03
7677.000	2.800	3478.340	-1180748.413	-4.192E-05	1.195E-03
7678.000	2.694	3478.342	-1180745.728	-6.258E-05	1.035E-03
7679.000	2.655	3478.355	-1180743.042	-5.286E-05	1.088E-03
7680.000	2.893	3478.396	-1180740.356	-6.258E-05	1.057E-03
7681.000	2.888	3478.439	-1180737.671	-6.562E-05	1.091E-03
7682.000	2.762	3478.426	-1180734.863	-3.828E-05	9.916E-04
7683.000	2.800	3478.431	-1180731.812	-5.468E-05	1.128E-03
7684.000	2.800	3478.438	-1180729.004	-6.805E-05	1.088E-03
7685.000	2.635	3478.431	-1180726.318	-4.922E-05	1.052E-03
7686.000	2.669	3478.468	-1180723.877	-4.132E-05	1.032E-03
7687.000	2.698	3478.494	-1180721.191	-4.192E-05	1.182E-03
7688.000	2.825	3478.504	-1180718.384	-5.225E-05	1.126E-03
7689.000	2.674	3478.495	-1180715.576	-6.380E-05	1.020E-03
7690.000	2.990	3478.507	-1180712.646	-4.375E-05	1.016E-03
7691.000	2.723	3478.491	-1180709.961	-6.197E-05	1.079E-03
7692.000	2.820	3478.528	-1180707.031	-4.922E-05	1.088E-03
7693.000	2.893	3478.527	-1180704.346	-7.230E-05	1.161E-03
7694.000	2.839	3478.537	-1180701.660	-5.772E-05	1.023E-03
7695.000	2.747	3478.559	-1180698.853	-6.684E-05	1.184E-03
7696.000	2.883	3478.558	-1180695.801	-6.258E-05	1.054E-03
7697.000	2.728	3478.538	-1180692.871	-6.076E-05	1.187E-03
7698.000	2.591	3478.555	-1180690.308	-5.286E-05	1.061E-03
7699.000	2.825	3478.586	-1180687.744	-6.744E-05	1.077E-03
7700.000	2.835	3478.582	-1180685.059	-5.347E-05	1.202E-03
7701.000	2.854	3478.599	-1180682.129	-6.258E-05	1.198E-03
7702.000	2.815	3478.620	-1180679.077	-5.286E-05	1.089E-03
7703.000	2.800	3478.583	-1180676.147	-6.927E-05	1.079E-03
7704.000	2.766	3478.566	-1180673.096	-6.987E-05	1.034E-03
7705.000	2.762	3478.592	-1180670.166	-6.319E-05	1.124E-03
7706.000	2.776	3478.619	-1180667.358	-6.197E-05	1.119E-03
7707.000	2.805	3478.594	-1180664.673	-7.230E-05	9.849E-04
7708.000	2.708	3478.630	-1180661.743	-5.711E-05	1.086E-03
7709.000	2.800	3478.648	-1180658.936	-7.656E-05	1.074E-03
7710.000	2.698	3478.656	-1180656.006	-8.020E-05	1.195E-03
7711.000	2.883	3478.665	-1180652.954	-4.253E-05	1.093E-03
7712.000	2.742	3478.656	-1180650.146	-7.230E-05	1.113E-03
7713.000	2.800	3478.684	-1180647.339	-4.861E-05	1.060E-03
7714.000	2.878	3478.664	-1180644.409	-4.982E-05	1.069E-03
7715.000	2.878	3478.683	-1180641.357	-7.048E-05	1.179E-03
7716.000	2.762	3478.713	-1180638.428	-6.805E-05	1.179E-03
7717.000	2.757	3478.655	-1180635.498	-4.496E-05	1.161E-03
7718.000	2.825	3478.663	-1180632.813	-5.772E-05	1.131E-03
7719.000	2.869	3478.697	-1180629.761	-5.833E-05	9.892E-04
7720.000	2.898	3478.695	-1180627.075	-5.529E-05	1.046E-03
7721.000	2.854	3478.685	-1180624.146	-6.623E-05	1.008E-03
7722.000	2.830	3478.672	-1180621.216	-5.043E-05	1.134E-03
7723.000	2.747	3478.714	-1180618.408	-6.744E-05	1.125E-03
7724.000	2.747	3478.690	-1180615.723	-5.165E-05	1.075E-03
7725.000	2.645	3478.744	-1180612.915	-7.595E-05	1.055E-03
7726.000	2.659	3478.756	-1180610.229	-4.071E-05	1.143E-03
7727.000	2.742	3478.734	-1180607.666	-6.501E-05	1.197E-03
7728.000	2.645	3478.727	-1180605.103	-6.744E-05	1.113E-03
7729.000	2.752	3478.721	-1180602.295	-7.230E-05	1.028E-03
7730.000	2.728	3478.771	-1180599.487	-5.468E-05	1.037E-03
7731.000	2.635	3478.711	-1180596.924	-5.104E-05	1.142E-03
7732.000	2.791	3478.722	-1180594.238	-6.319E-05	1.144E-03
7733.000	2.742	3478.763	-1180591.675	-5.651E-05	1.126E-03
7734.000	2.557	3478.732	-1180589.233	-4.739E-05	1.072E-03
7735.000	2.650	3478.795	-1180586.670	-6.805E-05	9.734E-04
7736.000	2.815	3478.749	-1180583.862	-5.347E-05	1.126E-03
7737.000	2.830	3478.760	-1180581.055	-6.197E-05	1.081E-03
7738.000	2.713	3478.789	-1180578.491	-6.015E-05	1.091E-03
7739.000	2.640	3478.734	-1180575.928	-4.557E-05	9.910E-04
7740.000	2.528	3478.790	-1180573.364	-6.258E-05	9.831E-04
7741.000	2.800	3478.797	-1180570.679	-5.651E-05	1.160E-03
7742.000	2.655	3478.774	-1180568.237	-6.015E-05	1.130E-03
7743.000	2.538	3478.762	-1180565.674	-6.562E-05	1.007E-03
7744.000	2.737	3478.784	-1180563.232	-6.805E-05	9.880E-04
7745.000	2.820	3478.808	-1180560.547	-5.347E-05	1.159E-03
7746.000	2.616	3478.830	-1180557.983	-5.529E-05	1.117E-03
7747.000	2.903	3478.832	-1180555.420	-6.197E-05	1.103E-03
7748.000	2.689	3478.774	-1180552.856	-6.866E-05	1.045E-03
7749.000	2.659	3478.797	-1180550.293	-6.258E-05	1.034E-03
7750.000	2.713	3478.822	-1180547.607	-6.744E-05	1.034E-03
7751.000	2.791	3478.848	-1180544.922	-6.927E-05	1.050E-03
7752.000	2.694	3478.781	-1180542.236	-6.258E-05	1.101E-03
7753.000	2.786	3478.840	-1180539.307	-5.833E-05	1.138E-03
7754.000	2.689	3478.821	-1180536.377	-4.922E-05	1.216E-03
7755.000	2.567	3478.846	-1180533.569	-5.468E-05	1.074E-03
7756.000	2.796	3478.826	-1180530.640	-5.347E-05	1.201E-03
7757.000	2.810	3478.830	-1180527.710	-5.711E-05	1.210E-03
7758.000	2.810	3478.855	-1180524.780	-5.529E-05	1.092E-03
7759.000	2.621	3478.844	-1180521.973	-4.435E-05	1.107E-03
7760.000	2.771	3478.869	-1180519.287	-5.954E-05	1.142E-03
7761.000	2.762	3478.838	-1180516.724	-5.347E-05	1.094E-03
7762.000	2.645	3478.838	-1180514.160	-5.347E-05	1.106E-03
7763.000	2.762	3478.862	-1180511.597	-5.833E-05	1.224E-03
7764.000	2.854	3478.869	-1180508.911	-7.170E-05	1.077E-03
7765.000	2.674	3478.900	-1180506.470	-5.529E-05	1.031E-03
7766.000	2.747	3478.902	-1180503.662	-4.739E-05	1.035E-03
7767.000	2.679	3478.811	-1180500.732	-6.137E-05	1.117E-03
7768.000	2.713	3478.894	-1180497.925	-4.010E-05	1.048E-03
7769.000	2.893	3478.905	-1180495.117	-6.987E-05	1.163E-03
7770.000	2.762	3478.903	-1180492.310	-7.048E-05	1.086E-03
7771.000	2.800	3478.895	-1180489.624	-6.076E-05	1.114E-03
7772.000	2.825	3478.884	-1180486.938	-5.225E-05	1.018E-03
7773.000	2.562	3478.914	-1180484.253	-4.800E-05	1.031E-03
7774.000	2.752	3478.917	-1180481.323	-5.954E-05	1.085E-03
7775.000	2.854	3478.934	-1180478.271	-5.408E-05	1.034E-03
7776.000	2.747	3478.901	-1180475.342	-6.380E-05	1.007E-03
7777.000	2.747	3478.860	-1180472.778	-5.468E-05	1.120E-03
7778.000	2.747	3478.896	-1180469.849	-8.263E-05	1.101E-03
7779.000	2.640	3478.913	-1180467.285	-6.441E-05	1.040E-03
7780.000	2.728	3478.912	-1180464.600	-6.501E-05	1.162E-03
7781.000	2.941	3478.902	-1180461.792	-6.623E-05	1.120E-03
7782.000	2.800	3478.916	-1180458.862	-4.435E-05	1.142E-03
7783.000	2.893	3478.949	-1180455.933	-6.015E-05	1.095E-03
7784.000	2.742	3478.942	-1180453.125	-5.165E-05	1.058E-03
7785.000	2.786	3478.962	-1180450.073	-6.015E-05	1.060E-03
7786.000	2.766	3478.911	-1180447.021	-5.225E-05	1.071E-03
7787.000	2.835	3478.925	-1180444.214	-5.651E-05	1.113E-03
7788.000	2.932	3478.907	-1180441.406	-8.567E-05	1.166E-03
7789.000	2.864	3478.943	-1180438.354	-4.739E-05	1.122E-03
7790.000	2.859	3478.961	-1180435.547	-8.020E-05	1.049E-03
7791.000	2.941	3478.979	-1180432.495	-4.861E-05	1.070E-03
7792.000	2.587	3478.945	-1180429.565	-6.684E-05	1.038E-03
7793.000	2.864	3479.003	-1180426.514	-5.043E-05	1.047E-03
7793.600	2.757	3478.982	-1180424.683	-5.165E-05	1.183E-03
7793.800	252.684	3497.561	-1180374.146	-5.104E-05	1.166E-03
7794.200	252.660	3498.157	-1180273.071	-5.347E-05	1.143E-03
7795.000	252.874	3498.650	-1180070.801	-5.711E-05	9.764E-04
7796.000	252.884	3499.097	-1179817.993	-4.435E-05	1.026E-03
7797.000	252.874	3499.458	-1179565.308	-5.043E-05	1.097E-03
7798.000	252.884	3499.832	-1179312.622	-5.894E-05	1.080E-03
7799.000	252.864	3500.126	-1179059.814	-5.468E-05	1.155E-03
7800.000	252.796	3500.367	-1178806.885	-5.225E-05	1.199E-03
7801.000	252.714	3500.664	-1178554.199	-4.982E-05	1.032E-03
7802.000	252.714	3500.886	-1178301.514	-4.618E-05	1.027E-03
7803.000	252.762	3501.069	-1178048.828	-6.319E-05	1.048E-03
7804.000	252.626	3501.264	-1177796.143	-5.043E-05	1.158E-03
7805.000	252.787	3501.497	-1177543.457	-5.468E-05	1.148E-03
7806.000	252.796	3501.688	-1177290.771	-6.684E-05	1.194E-03
7807.000	252.714	3501.869	-1177038.086	-5.651E-05	1.107E-03
7808.000	252.835	3501.966	-1176785.400	-6.015E-05	1.104E-03
7809.000	252.845	3502.224	-1176532.715	-5.225E-05	9.873E-04
7810.000	252.787	3502.352	-1176280.029	-6.380E-05	1.129E-03
7811.000	252.825	3502.489	-1176027.344	-6.258E-05	1.099E-03
7812.000	252.767	3502.704	-1175774.658	-6.380E-05	1.202E-03
7813.000	252.767	3502.852	-1175521.973	-5.165E-05	1.167E-03
7814.000	252.733	3502.991	-1175269.287	-6.076E-05	1.147E-03
7815.000	252.709	3503.143	-1175016.602	-5.651E-05	1.082E-03
7816.000	252.879	3503.291	-1174763.916	-4.739E-05	9.697E-04
7817.000	252.582	3503.411	-1174511.230	-5.043E-05	9.643E-04
7818.000	252.791	3503.539	-1174258.545	-6.258E-05	1.040E-03
7819.000	252.694	3503.674	-1174005.859	-5.711E-05	1.022E-03
7820.000	252.718	3503.803	-1173753.174	-7.170E-05	1.087E-03
7821.000	252.684	3503.878	-1173500.488	-5.651E-05	1.021E-03
7822.000	252.743	3504.033	-1173247.803	-6.380E-05	1.030E-03
7823.000	252.772	3504.134	-1172995.117	-6.744E-05	1.139E-03
7824.000	252.694	3504.199	-1172742.432	-4.739E-05	1.085E-03
7825.000	252.689	3504.345	-1172489.746	-4.982E-05	1.045E-03
7826.000	252.709	3504.455	-1172237.061	-6.015E-05	1.019E-03
7827.000	252.704	3504.589	-1171984.375	-5.529E-05	1.109E-03
7828.000	252.752	3504.696	-1171731.689	-6.744E-05	1.134E-03
7829.000	252.787	3504.752	-1171479.004	-7.716E-05	1.136E-03
7830.000	252.616	3504.910	-1171226.318	-6.684E-05	1.088E-03
7831.000	252.665	3504.975	-1170973.633	-6.319E-05	1.052E-03
7832.000	252.898	3505.073	-1170720.947	-5.408E-05	1.125E-03
7833.000	252.655	3505.222	-1170468.262	-5.408E-05	1.122E-03
7834.000	252.509	3505.269	-1170215.576	-6.866E-05	1.060E-03
7835.000	252.728	3505.377	-1169962.891	-7.230E-05	1.049E-03
7836.000	252.490	3505.453	-1169710.205	-6.866E-05	1.130E-03
7837.000	252.670	3505.555	-1169457.520	-6.137E-05	1.013E-03
7838.000	252.597	3505.604	-1169204.834	-5.286E-05	1.153E-03
7839.000	252.607	3505.736	-1168952.148	-5.590E-05	1.163E-03
7840.000	252.607	3505.815	-1168699.463	-6.137E-05	1.200E-03
7841.000	252.568	3505.895	-1168446.777	-4.557E-05	1.109E-03
7842.000	252.611	3505.959	-1168194.092	-6.137E-05	1.106E-03
7843.000	252.757	3506.050	-1167941.406	-6.015E-05	1.131E-03
7844.000	252.529	3506.159	-1167688.721	-4.800E-05	1.233E-03
7845.000	252.553	3506.239	-1167436.035	-5.468E-05	1.143E-03
7846.000	252.718	3506.315	-1167183.350	-5.165E-05	1.041E-03
7847.000	252.607	3506.414	-1166930.664	-6.076E-05	9.971E-04
7848.000	252.689	3506.508	-1166677.979	-6.684E-05	1.089E-03
7849.000	252.684	3506.538	-1166425.293	-5.954E-05	9.807E-04
7850.000	252.670	3506.648	-1166172.607	-6.623E-05	1.112E-03
7851.000	252.791	3506.725	-1165919.922	-5.651E-05	1.146E-03
7852.000	252.801	3506.787	-1165667.236	-7.777E-05	1.082E-03
7853.000	252.772	3506.834	-1165414.551	-6.441E-05	9.643E-04
7854.000	252.777	3506.956	-1165161.865	-6.137E-05	1.164E-03
7855.000	252.650	3506.983	-1164909.180	-5.286E-05	1.131E-03
7856.000	252.699	3507.079	-1164656.494	-5.408E-05	1.188E-03
7857.000	252.733	3507.176	-1164403.809	-6.015E-05	1.226E-03
7858.000	252.699	3507.243	-1164151.123	-5.347E-05	1.105E-03
7859.000	252.743	3507.281	-1163898.438	-5.894E-05	1.073E-03
7860.000	252.796	3507.365	-1163645.752	-5.711E-05	1.103E-03
7861.000	252.908	3507.455	-1163393.066	-6.866E-05	1.150E-03
7862.000	252.680	3507.481	-1163140.381	-5.104E-05	1.262E-03
7863.000	252.592	3507.599	-1162887.695	-5.954E-05	1.094E-03
7864.000	252.772	3507.632	-1162635.010	-6.319E-05	1.140E-03
7865.000	252.757	3507.697	-1162382.324	-6.319E-05	9.685E-04
7866.000	252.757	3507.784	-1162129.639	-4.922E-05	1.081E-03
7867.000	252.670	3507.842	-1161876.953	-7.048E-05	1.149E-03
7868.000	252.694	3507.893	-1161624.268	-5.286E-05	1.116E-03
7869.000	252.616	3507.987	-1161371.582	-6.076E-05	1.068E-03
7870.000	252.801	3508.050	-1161118.896	-4.982E-05	1.099E-03
7871.000	252.801	3508.106	-1160866.089	-5.772E-05	1.027E-03
7872.000	252.869	3508.148	-1160613.403	-5.468E-05	1.027E-03
7873.000	252.840	3508.258	-1160360.718	-5.043E-05	1.139E-03
7874.000	252.728	3508.313	-1160108.032	-5.286E-05	1.164E-03
7875.000	252.879	3508.368	-1159855.347	-6.197E-05	1.031E-03
7876.000	252.650	3508.419	-1159602.661	-6.015E-05	1.052E-03
7877.000	252.748	3508.469	-1159349.976	-7.413E-05	1.062E-03
7878.000	252.728	3508.539	-1159097.290	-4.922E-05	1.065E-03
7879.000	252.767	3508.606	-1158844.604	-4.010E-05	1.103E-03
7880.000	252.636	3508.661	-1158591.919	-4.922E-05	1.043E-03
7881.000	252.495	3508.714	-1158339.233	-6.319E-05	1.091E-03
7882.000	252.680	3508.779	-1158086.548	-5.651E-05	1.125E-03
7883.000	252.631	3508.804	-1157833.862	-5.590E-05	1.108E-03
7884.000	252.825	3508.905	-1157581.177	-7.595E-05	1.179E-03
7885.000	252.772	3508.945	-1157328.491	-5.347E-05	1.088E-03
7886.000	252.723	3508.994	-1157075.806	-3.524E-05	1.083E-03
7887.000	252.699	3509.081	-1156823.120	-5.833E-05	1.023E-03
7888.000	252.616	3509.090	-1156570.435	-5.043E-05	1.118E-03
7889.000	252.699	3509.175	-1156317.749	-5.772E-05	1.235E-03
7890.000	252.626	3509.225	-1156065.063	-4.010E-05	1.057E-03
7891.000	252.898	3509.278	-1155812.378	-5.833E-05	1.099E-03
7892.000	252.787	3509.334	-1155559.692	-6.623E-05	1.067E-03
7893.000	252.738	3509.387	-1155307.007	-5.529E-05	1.228E-03
7894.000	252.733	3509.454	-1155054.321	-6.562E-05	1.173E-03
7895.000	252.791	3509.507	-1154801.636	-6.927E-05	1.135E-03
7896.000	252.825	3509.568	-1154548.950	-5.286E-05	1.054E-03
7897.000	252.889	3509.634	-1154296.265	-5.833E-05	1.108E-03
7898.000	252.850	3509.697	-1154043.457	-6.987E-05	1.052E-03
7899.000	252.796	3509.726	-1153790.771	-6.744E-05	1.086E-03
7900.000	252.811	3509.778	-1153538.086	-5.651E-05	1.069E-03
7901.000	252.898	3509.810	-1153285.400	-5.043E-05	1.152E-03
7901.600	252.855	3509.858	-1153133.789	-7.656E-05	1.073E-03
7901.800	2.932	3491.441	-1153133.179	-6.623E-05	1.055E-03
7902.200	3.034	3490.960	-1153131.958	-6.258E-05	1.180E-03
7903.000	2.830	3490.508	-1153129.639	-6.137E-05	1.006E-03
7904.000	2.786	3490.120	-1153126.587	-6.015E-05	1.101E-03
7905.000	2.907	3489.829	-1153123.535	-7.473E-05	1.096E-03
7906.000	3.068	3489.613	-1153120.483	-5.711E-05	1.034E-03
7907.000	2.796	3489.361	-1153117.554	-5.954E-05	1.117E-03
7908.000	2.966	3489.179	-1153114.502	-4.678E-05	1.111E-03
7909.000	2.869	3489.006	-1153111.450	-6.137E-05	1.103E-03
7910.000	3.010	3488.858	-1153108.398	-4.800E-05	1.078E-03
7911.000	2.932	3488.727	-1153105.347	-7.048E-05	1.082E-03
7912.000	2.864	3488.583	-1153102.295	-5.286E-05	1.103E-03
7913.000	2.888	3488.415	-1153099.243	-7.109E-05	1.055E-03
7914.000	2.825	3488.307	-1153096.191	-5.286E-05	1.034E-03
7915.000	2.825	3488.219	-1153093.140	-5.954E-05	1.023E-03
7916.000	2.737	3488.140	-1153090.210	-6.015E-05	1.080E-03
7917.000	2.980	3488.009	-1153087.158	-7.352E-05	1.130E-03
7918.000	2.985	3487.958	-1153084.106	-6.501E-05	1.124E-03
7919.000	3.010	3487.852	-1153081.055	-4.982E-05	1.179E-03
7920.000	2.854	3487.801	-1153078.125	-6.744E-05	1.092E-03
7921.000	2.937	3487.706	-1153075.073	-5.711E-05	1.137E-03
7922.000	2.976	3487.624	-1153072.021	-4.800E-05	1.105E-03
7923.000	2.854	3487.578	-1153068.970	-5.651E-05	1.137E-03
7924.000	2.873	3487.518	-1153065.918	-4.800E-05	1.100E-03
7925.000	2.815	3487.437	-1153062.866	-5.286E-05	1.014E-03
7926.000	2.990	3487.378	-1153059.814	-5.711E-05	1.114E-03
7927.000	2.830	3487.327	-1153056.763	-5.104E-05	1.042E-03
7928.000	2.941	3487.265	-1153053.711	-5.408E-05	1.096E-03
7929.000	2.951	3487.217	-1153050.659	-5.651E-05	1.086E-03
7930.000	2.844	3487.205	-1153047.607	-5.408E-05	1.014E-03
7931.000	2.786	3487.136	-1153044.678	-5.043E-05	9.782E-04
7932.000	2.976	3487.097	-1153041.626	-4.739E-05	1.042E-03
7933.000	2.800	3487.068	-1153038.574	-6.197E-05	1.074E-03
7934.000	2.941	3487.012	-1153035.522	-5.104E-05	1.022E-03
7935.000	2.645	3486.975	-1153032.837	-6.380E-05	1.109E-03
7936.000	2.762	3486.902	-1153029.785	-6.319E-05	1.032E-03
7937.000	2.723	3486.874	-1153026.855	-5.468E-05	1.195E-03
7938.000	2.786	3486.856	-1153024.048	-4.739E-05	1.079E-03
7939.000	2.747	3486.866	-1153021.118	-6.137E-05	1.135E-03
7940.000	2.825	3486.786	-1153018.188	-5.165E-05	1.107E-03
7941.000	2.854	3486.736	-1153015.137	-6.501E-05	1.094E-03
7942.000	2.766	3486.717	-1153012.207	-5.954E-05	1.019E-03
7943.000	2.742	3486.709	-1153009.399	-6.380E-05	1.067E-03
7944.000	2.907	3486.686	-1153006.592	-4.314E-05	1.086E-03
7945.000	2.810	3486.655	-1153003.662	-4.375E-05	1.125E-03
7946.000	2.898	3486.629	-1153000.977	-6.562E-05	1.118E-03
7947.000	2.820	3486.623	-1152998.047	-5.954E-05	1.181E-03
7948.000	2.888	3486.587	-1152995.117	-5.651E-05	1.188E-03
7949.000	2.888	3486.573	-1152992.065	-6.744E-05	1.128E-03
7950.000	2.966	3486.507	-1152989.014	-4.618E-05	1.069E-03
7951.000	3.044	3486.519	-1152986.328	-5.408E-05	1.136E-03
7952.000	2.664	3486.458	-1152983.398	-6.076E-05	1.150E-03
7953.000	2.781	3486.480	-1152980.591	-6.380E-05	1.230E-03
7954.000	2.791	3486.445	-1152977.661	-6.197E-05	1.106E-03
7955.000	2.766	3486.420	-1152974.854	-5.529E-05	1.001E-03
7956.000	2.713	3486.446	-1152972.168	-6.197E-05	1.061E-03
7957.000	2.669	3486.361	-1152969.360	-5.772E-05	1.095E-03
7958.000	2.757	3486.376	-1152966.431	-5.043E-05	1.041E-03
7959.000	2.689	3486.352	-1152963.745	-6.015E-05	1.099E-03
7960.000	2.728	3486.331	-1152961.182	-6.015E-05	1.239E-03
7961.000	2.635	3486.294	-1152958.496	-5.894E-05	1.180E-03
7962.000	2.878	3486.300	-1152955.688	-4.496E-05	1.095E-03
7963.000	3.005	3486.297	-1152952.759	-5.286E-05	1.038E-03
7964.000	2.825	3486.253	-1152949.707	-6.441E-05	1.113E-03
7965.000	2.820	3486.240	-1152946.777	-5.347E-05	1.023E-03
7966.000	2.762	3486.228	-1152943.848	-6.987E-05	1.066E-03
7967.000	2.786	3486.253	-1152940.918	-4.618E-05	1.095E-03
7968.000	2.893	3486.235	-1152937.866	-5.711E-05	1.074E-03
7969.000	2.800	3486.203	-1152934.937	-6.137E-05	1.161E-03
7970.000	2.941	3486.186	-1152931.885	-5.529E-05	1.020E-03
7971.000	2.825	3486.240	-1152928.833	-6.197E-05	1.046E-03
7972.000	2.718	3486.197	-1152925.903	-5.651E-05	1.073E-03
7973.000	2.869	3486.208	-1152922.974	-5.711E-05	1.097E-03
7974.000	2.689	3486.113	-1152920.288	-5.043E-05	1.073E-03
7975.000	2.728	3486.157	-1152917.358	-5.711E-05	1.178E-03
7976.000	2.907	3486.126	-1152914.429	-4.922E-05	1.233E-03
7977.000	2.781	3486.111	-1152911.499	-7.291E-05	1.091E-03
7978.000	2.810	3486.121	-1152908.569	-3.646E-05	1.133E-03
7979.000	2.893	3486.097	-1152905.884	-5.286E-05	1.113E-03
7980.000	2.898	3486.090	-1152902.954	-4.982E-05	1.106E-03
7981.000	2.728	3486.104	-1152900.146	-8.324E-05	1.162E-03
7982.000	2.752	3486.037	-1152897.217	-6.623E-05	1.099E-03
7983.000	2.849	3486.053	-1152894.287	-4.982E-05	9.892E-04
7984.000	2.835	3486.045	-1152891.235	-5.165E-05	1.199E-03
7985.000	2.703	3486.062	-1152888.306	-6.076E-05	1.088E-03
7986.000	2.859	3486.026	-1152885.254	-6.258E-05	1.089E-03
7987.000	2.893	3486.012	-1152882.202	-5.225E-05	1.120E-03
7988.000	2.961	3486.008	-1152879.272	-6.319E-05	1.113E-03
7989.000	2.732	3486.006	-1152876.343	-4.982E-05	1.054E-03
7990.000	2.742	3486.006	-1152873.413	-6.076E-05	9.916E-04
7991.000	2.839	3485.976	-1152870.605	-5.590E-05	1.015E-03
7992.000	2.932	3485.965	-1152867.554	-5.590E-05	1.141E-03
7993.000	2.742	3485.994	-1152864.624	-5.043E-05	1.082E-03
7994.000	2.791	3485.982	-1152861.694	-6.987E-05	1.042E-03
7995.000	2.859	3485.998	-1152858.643	-6.197E-05	1.027E-03
7996.000	2.762	3485.945	-1152855.591	-6.319E-05	1.226E-03
7997.000	2.781	3485.970	-1152852.783	-5.347E-05	1.098E-03
7998.000	2.786	3485.954	-1152850.098	-4.192E-05	1.075E-03
7999.000	2.771	3485.925	-1152847.168	-5.651E-05	1.066E-03
8000.000	2.718	3485.944	-1152844.360	-4.132E-05	1.021E-03
8001.000	2.830	3485.898	-1152841.431	-7.170E-05	1.088E-03
8002.000	2.796	3485.935	-1152838.501	-6.015E-05	1.015E-03
8003.000	2.854	3485.926	-1152835.449	-6.076E-05	1.097E-03
8004.000	2.912	3485.923	-1152832.397	-5.590E-05	1.193E-03
8005.000	2.805	3485.899	-1152829.590	-4.618E-05	1.150E-03
8006.000	2.791	3485.899	-1152826.538	-4.496E-05	1.097E-03
8007.000	2.820	3485.909	-1152823.853	-5.651E-05	1.108E-03
8008.000	3.039	3485.853	-1152820.801	-5.529E-05	1.133E-03
8009.000	2.922	3485.866	-1152817.871	-4.253E-05	1.099E-03
8010.000	2.800	3485.888	-1152814.941	-6.076E-05	1.010E-03
8011.000	2.907	3485.884	-1152811.890	-5.833E-05	1.033E-03
8012.000	2.752	3485.830	-1152808.960	-5.043E-05	1.100E-03
8013.000	2.864	3485.858	-1152806.030	-6.927E-05	1.124E-03
8014.000	2.791	3485.859	-1152803.101	-5.833E-05	9.831E-04
8015.000	2.771	3485.856	-1152800.049	-6.015E-05	1.132E-03
8016.000	2.839	3485.819	-1152796.997	-5.590E-05	1.004E-03
8017.000	2.864	3485.831	-1152793.945	-4.800E-05	1.003E-03
8018.000	2.835	3485.787	-1152791.138	-6.380E-05	1.032E-03
8019.000	2.791	3485.796	-1152788.086	-5.833E-05	1.048E-03
8020.000	2.747	3485.795	-1152785.278	-4.375E-05	1.153E-03
8021.000	2.854	3485.819	-1152782.471	-5.833E-05	1.095E-03
8021.600	2.839	3485.799	-1152780.762	-5.711E-05	1.135E-03
8021.800	-247.105	3467.268	-1152830.200	-5.772E-05	1.064E-03
8022.200	-247.261	3466.664	-1152929.077	-5.590E-05	1.168E-03
8023.000	-247.266	3466.161	-1153126.831	-5.165E-05	1.107E-03
8024.000	-247.273	3465.725	-1153374.023	-6.380E-05	1.068E-03
8025.000	-247.305	3465.347	-1153621.216	-4.314E-05	1.162E-03
8026.000	-247.346	3465.014	-1153868.408	-5.408E-05	1.233E-03
8027.000	-247.470	3464.680	-1154115.601	-4.800E-05	1.027E-03
8028.000	-247.258	3464.418	-1154362.793	-4.435E-05	1.009E-03
8029.000	-247.365	3464.164	-1154609.985	-3.949E-05	1.085E-03
8030.000	-247.392	3463.908	-1154857.178	-6.562E-05	1.086E-03
8031.000	-247.336	3463.717	-1155104.370	-4.375E-05	1.236E-03
8032.000	-247.317	3463.460	-1155351.563	-5.104E-05	1.159E-03
8033.000	-247.302	3463.307	-1155598.755	-5.772E-05	1.117E-03
8034.000	-247.351	3463.087	-1155845.947	-5.954E-05	1.097E-03
8035.000	-247.266	3462.910	-1156093.140	-6.076E-05	1.019E-03
8036.000	-247.266	3462.743	-1156340.332	-5.468E-05	1.195E-03
8037.000	-247.285	3462.540	-1156587.524	-5.833E-05	1.102E-03
8038.000	-247.324	3462.368	-1156834.717	-6.744E-05	1.124E-03
8039.000	-247.159	3462.239	-1157081.909	-6.805E-05	1.085E-03
8040.000	-247.290	3462.083	-1157329.102	-5.651E-05	1.034E-03
8041.000	-247.249	3461.924	-1157576.294	-4.861E-05	1.123E-03
8042.000	-247.254	3461.745	-1157823.486	-6.197E-05	1.131E-03
8043.000	-247.276	3461.615	-1158070.679	-5.651E-05	1.049E-03
8044.000	-247.227	3461.508	-1158317.871	-4.192E-05	1.099E-03
8045.000	-247.237	3461.363	-1158565.063	-5.468E-05	1.132E-03
8046.000	-247.181	3461.227	-1158812.256	-5.468E-05	1.039E-03
8047.000	-247.295	3461.088	-1159059.448	-5.347E-05	1.208E-03
8048.000	-247.276	3460.947	-1159306.641	-3.281E-05	1.148E-03
8049.000	-247.382	3460.819	-1159553.833	-5.894E-05	1.065E-03
8050.000	-247.302	3460.707	-1159801.025	-4.618E-05	1.026E-03
8051.000	-247.283	3460.560	-1160048.218	-5.651E-05	1.050E-03
8052.000	-247.385	3460.461	-1160295.410	-5.711E-05	1.123E-03
8053.000	-247.382	3460.326	-1160542.603	-4.314E-05	1.110E-03
8054.000	-247.402	3460.255	-1160789.795	-6.258E-05	1.089E-03
8055.000	-247.431	3460.115	-1161036.987	-5.225E-05	1.047E-03
8056.000	-247.402	3459.978	-1161284.180	-4.618E-05	1.051E-03
8057.000	-247.382	3459.900	-1161531.494	-4.435E-05	1.221E-03
8058.000	-247.392	3459.770	-1161778.687	-5.590E-05	1.080E-03
8059.000	-247.278	3459.668	-1162025.879	-4.557E-05	1.147E-03
8060.000	-247.353	3459.581	-1162273.071	-5.225E-05	1.104E-03
8061.000	-247.618	3459.451	-1162520.508	-5.590E-05	1.113E-03
8062.000	-247.421	3459.372	-1162767.822	-4.861E-05	1.109E-03
8063.000	-247.434	3459.302	-1163015.137	-5.043E-05	1.072E-03
8064.000	-247.426	3459.166	-1163262.451	-5.833E-05	1.136E-03
8065.000	-247.434	3459.132	-1163509.644	-4.314E-05	1.051E-03
8066.000	-247.339	3459.016	-1163756.836	-5.833E-05	9.564E-04
8067.000	-247.285	3458.919	-1164004.028	-5.286E-05	1.026E-03
8068.000	-247.324	3458.838	-1164251.343	-4.678E-05	1.086E-03
8069.000	-247.310	3458.775	-1164498.535	-4.982E-05	1.120E-03
8070.000	-247.368	3458.668	-1164745.728	-6.015E-05	1.100E-03
8071.000	-247.412	3458.533	-1164993.042	-4.618E-05	1.020E-03
8072.000	-247.417	3458.420	-1165240.234	-4.800E-05	1.094E-03
8073.000	-247.402	3458.382	-1165487.427	-4.922E-05	9.254E-04
8074.000	-247.302	3458.275	-1165734.619	-5.772E-05	1.234E-03
8075.000	-247.380	3458.217	-1165981.934	-4.678E-05	1.187E-03
8076.000	-247.290	3458.138	-1166229.126	-4.922E-05	1.087E-03
8077.000	-247.438	3458.070	-1166476.318	-4.496E-05	1.015E-03
8078.000	-247.446	3458.003	-1166723.511	-5.590E-05	1.041E-03
8079.000	-247.241	3457.903	-1166970.703	-5.894E-05	1.142E-03
8080.000	-247.224	3457.794	-1167217.896	-6.258E-05	1.180E-03
8081.000	-247.297	3457.741	-1167465.088	-4.678E-05	1.146E-03
8082.000	-247.392	3457.697	-1167712.280	-5.104E-05	1.204E-03
8083.000	-247.280	3457.578	-1167959.473	-5.529E-05	1.077E-03
8084.000	-247.293	3457.520	-1168206.665	-3.585E-05	1.086E-03
8085.000	-247.246	3457.471	-1168453.857	-5.104E-05	1.111E-03
8086.000	-247.443	3457.382	-1168701.050	-5.651E-05	1.088E-03
8087.000	-247.251	3457.315	-1168948.242	-4.739E-05	1.137E-03
8088.000	-247.378	3457.242	-1169195.435	-4.922E-05	1.168E-03
8089.000	-247.263	3457.180	-1169442.627	-3.463E-05	1.025E-03
8090.000	-247.373	3457.089	-1169689.819	-5.772E-05	1.180E-03
8091.000	-247.329	3457.051	-1169937.012	-5.894E-05	1.043E-03
8092.000	-247.198	3456.975	-1170184.204	-5.408E-05	1.087E-03
8093.000	-247.285	3456.886	-1170431.396	-2.613E-05	1.117E-03
8094.000	-247.402	3456.864	-1170678.589	-5.590E-05	1.072E-03
8095.000	-247.358	3456.748	-1170925.781	-6.927E-05	1.077E-03
8096.000	-247.361	3456.667	-1171172.974	-5.104E-05	1.087E-03
8097.000	-247.363	3456.605	-1171420.166	-6.562E-05	1.126E-03
8098.000	-247.227	3456.563	-1171667.358	-5.772E-05	1.071E-03
8099.000	-247.353	3456.478	-1171914.551	-4.435E-05	9.679E-04
8100.000	-247.288	3456.434	-1172161.743	-4.618E-05	9.965E-04
8101.000	-247.173	3456.357	-1172408.936	-6.380E-05	1.043E-03
8102.000	-247.322	3456.308	-1172656.128	-5.772E-05	1.097E-03
8103.000	-247.215	3456.257	-1172903.320	-5.104E-05	1.086E-03
8104.000	-247.392	3456.195	-1173150.513	-5.104E-05	1.137E-03
8105.000	-247.227	3456.133	-1173397.705	-5.894E-05	1.136E-03
8106.000	-247.195	3456.067	-1173644.897	-2.977E-05	1.055E-03
8107.000	-247.273	3455.976	-1173892.090	-6.015E-05	1.159E-03
8108.000	-247.232	3455.957	-1174139.282	-4.557E-05	1.099E-03
8109.000	-247.234	3455.911	-1174386.475	-4.982E-05	1.109E-03
8110.000	-247.339	3455.856	-1174633.667	-5.833E-05	1.143E-03
8111.000	-247.220	3455.767	-1174880.859	-4.982E-05	1.100E-03
8112.000	-247.302	3455.701	-1175128.052	-6.380E-05	1.062E-03
8113.000	-247.475	3455.673	-1175375.244	-6.015E-05	1.139E-03
8114.000	-247.482	3455.617	-1175622.437	-6.501E-05	1.131E-03
8115.000	-247.241	3455.561	-1175869.629	-6.258E-05	1.051E-03
8116.000	-247.348	3455.492	-1176116.821	-5.043E-05	1.105E-03
8117.000	-247.212	3455.438	-1176364.014	-4.375E-05	1.192E-03
8118.000	-247.210	3455.390	-1176611.206	-5.833E-05	1.093E-03
8119.000	-247.417	3455.343	-1176858.398	-6.684E-05	1.136E-03
8120.000	-247.375	3455.305	-1177105.591	-4.253E-05	1.103E-03
8121.000	-247.324	3455.267	-1177352.783	-3.889E-05	9.740E-04
8122.000	-247.387	3455.171	-1177600.098	-5.225E-05	9.679E-04
8123.000	-247.390	3455.139	-1177847.290	-5.165E-05	9.782E-04
8124.000	-247.344	3455.091	-1178094.604	-4.982E-05	1.062E-03
8125.000	-247.344	3455.047	-1178341.797	-6.137E-05	1.075E-03
8126.000	-247.266	3455.010	-1178588.989	-4.922E-05	1.023E-03
8127.000	-247.290	3454.893	-1178836.182	-5.225E-05	1.104E-03
8128.000	-247.266	3454.883	-1179083.374	-4.678E-05	1.054E-03
8129.000	-247.436	3454.848	-1179330.566	-5.104E-05	1.069E-03
8129.600	-247.387	3454.826	-1179478.882	-6.805E-05	1.142E-03
8129.800	2.499	3473.543	-1179478.394	-5.225E-05	1.004E-03
8130.200	2.659	3474.117	-1179477.417	-5.833E-05	1.153E-03
8131.000	2.791	3474.657	-1179475.220	-6.197E-05	1.005E-03
8132.000	2.796	3475.040	-1179472.412	-7.352E-05	1.119E-03
8133.000	2.689	3475.331	-1179469.727	-5.165E-05	1.177E-03
8134.000	2.888	3475.579	-1179466.675	-4.618E-05	1.044E-03
8135.000	2.757	3475.801	-1179463.989	-6.197E-05	1.063E-03
8136.000	2.781	3475.981	-1179461.182	-7.473E-05	1.211E-03
8137.000	2.844	3476.202	-1179458.374	-6.684E-05	1.131E-03
8138.000	2.664	3476.361	-1179455.933	-6.441E-05	1.115E-03
8139.000	2.835	3476.501	-1179453.003	-5.954E-05	1.085E-03
8140.000	2.732	3476.626	-1179450.195	-8.020E-05	1.075E-03
8141.000	2.762	3476.736	-1179447.388	-5.286E-05	1.045E-03
8142.000	2.747	3476.847	-1179444.702	-6.987E-05	1.092E-03
8143.000	2.762	3476.948	-1179442.139	-6.987E-05	1.122E-03
8144.000	2.679	3477.033	-1179439.453	-6.441E-05	1.027E-03
8145.000	2.752	3477.143	-1179436.523	-5.590E-05	1.095E-03
8146.000	2.650	3477.254	-1179433.960	-6.501E-05	1.155E-03
8147.000	2.703	3477.318	-1179431.396	-5.408E-05	1.075E-03
8148.000	2.689	3477.419	-1179428.833	-6.258E-05	1.031E-03
8149.000	2.694	3477.466	-1179426.147	-6.076E-05	1.128E-03
8150.000	2.742	3477.514	-1179423.706	-6.197E-05	1.120E-03
8151.000	2.781	3477.575	-1179421.021	-5.468E-05	1.124E-03
8152.000	2.752	3477.672	-1179418.213	-6.380E-05	1.017E-03
8153.000	2.796	3477.737	-1179415.405	-6.380E-05	1.023E-03
8154.000	2.917	3477.776	-1179412.354	-5.225E-05	1.119E-03
8155.000	2.815	3477.817	-1179409.546	-5.894E-05	1.009E-03
8156.000	2.664	3477.900	-1179406.982	-4.861E-05	1.094E-03
8157.000	2.762	3477.947	-1179404.297	-5.711E-05	1.070E-03
8158.000	2.655	3478.000	-1179401.733	-6.805E-05	1.075E-03
8159.000	2.708	3478.055	-1179399.170	-4.314E-05	1.161E-03
8160.000	2.732	3478.121	-1179396.606	-6.258E-05	1.204E-03
8161.000	2.708	3478.134	-1179393.799	-4.922E-05	1.131E-03
8162.000	2.786	3478.155	-1179390.869	-6.015E-05	1.075E-03
8163.000	2.752	3478.222	-1179388.062	-6.137E-05	1.038E-03
8164.000	2.815	3478.228	-1179385.132	-4.982E-05	1.068E-03
8165.000	2.752	3478.267	-1179382.324	-6.076E-05	9.959E-04
8166.000	2.640	3478.328	-1179379.883	-6.137E-05	1.126E-03
8167.000	2.825	3478.288	-1179377.075	-5.468E-05	1.221E-03
8168.000	2.703	3478.379	-1179374.390	-6.197E-05	1.131E-03
8169.000	2.713	3478.402	-1179371.826	-5.772E-05	1.124E-03
8170.000	2.664	3478.390	-1179369.263	-6.197E-05	1.123E-03
8171.000	2.830	3478.441	-1179366.455	-6.137E-05	1.193E-03
8172.000	2.912	3478.510	-1179363.647	-7.291E-05	9.709E-04
8173.000	2.815	3478.516	-1179360.962	-6.623E-05	1.128E-03
8174.000	2.562	3478.544	-1179358.521	-6.866E-05	1.072E-03
8175.000	2.713	3478.555	-1179355.713	-6.562E-05	1.133E-03
8176.000	2.762	3478.617	-1179352.783	-5.833E-05	1.074E-03
8177.000	2.859	3478.635	-1179349.976	-5.651E-05	1.075E-03
8178.000	2.708	3478.666	-1179347.290	-7.777E-05	1.068E-03
8179.000	2.752	3478.679	-1179344.727	-5.711E-05	1.074E-03
8180.000	2.762	3478.724	-1179342.041	-6.623E-05	1.123E-03
8181.000	2.747	3478.717	-1179339.233	-6.380E-05	1.092E-03
8182.000	2.893	3478.740	-1179336.182	-8.203E-05	1.032E-03
8183.000	2.708	3478.738	-1179333.252	-5.286E-05	9.697E-04
8184.000	2.737	3478.752	-1179330.566	-6.441E-05	1.014E-03
8185.000	2.694	3478.801	-1179328.125	-4.496E-05	1.074E-03
8186.000	2.766	3478.774	-1179325.439	-5.165E-05	1.058E-03
8187.000	2.805	3478.823	-1179322.754	-6.197E-05	1.133E-03
8188.000	2.698	3478.844	-1179320.068	-6.197E-05	9.697E-04
8189.000	2.747	3478.828	-1179317.383	-6.137E-05	1.040E-03
8190.000	2.776	3478.868	-1179314.819	-6.623E-05	1.088E-03
8191.000	2.830	3478.882	-1179312.012	-6.258E-05	1.140E-03
8192.000	2.796	3478.909	-1179309.204	-5.225E-05	1.119E-03
8193.000	2.747	3478.923	-1179306.396	-6.380E-05	1.214E-03
8194.000	2.786	3478.952	-1179303.711	-6.197E-05	1.198E-03
8195.000	2.572	3478.959	-1179301.147	-6.927E-05	1.167E-03
8196.000	2.859	3478.912	-1179298.340	-6.258E-05	1.157E-03
8197.000	2.684	3479.000	-1179295.776	-5.651E-05	9.916E-04
8198.000	2.708	3478.995	-1179293.213	-6.684E-05	1.013E-03
8199.000	2.713	3479.002	-1179290.771	-6.076E-05	1.127E-03
8200.000	2.800	3479.048	-1179288.208	-5.833E-05	1.188E-03
8201.000	2.781	3479.033	-1179285.645	-6.927E-05	1.121E-03
8202.000	2.621	3479.044	-1179283.081	-7.109E-05	1.108E-03
8203.000	2.684	3479.083	-1179280.518	-6.015E-05	1.037E-03
8204.000	2.645	3479.089	-1179277.954	-4.982E-05	1.003E-03
8205.000	2.543	3479.098	-1179275.391	-5.651E-05	1.057E-03
8206.000	2.713	3479.115	-1179272.705	-6.866E-05	1.092E-03
8207.000	2.820	3479.107	-1179270.142	-6.684E-05	1.085E-03
8208.000	2.689	3479.109	-1179267.334	-6.137E-05	1.072E-03
8209.000	2.684	3479.166	-1179264.648	-5.286E-05	1.148E-03
8210.000	2.582	3479.119	-1179262.207	-6.258E-05	1.027E-03
8211.000	2.596	3479.181	-1179259.644	-5.833E-05	1.005E-03
8212.000	2.708	3479.164	-1179256.958	-5.894E-05	1.054E-03
8213.000	2.771	3479.175	-1179253.906	-6.258E-05	1.132E-03
8214.000	2.713	3479.206	-1179251.465	-6.501E-05	1.169E-03
8215.000	2.820	3479.167	-1179248.657	-5.286E-05	1.108E-03
8216.000	2.630	3479.224	-1179245.850	-5.165E-05	9.612E-04
8217.000	2.708	3479.214	-1179243.286	-6.197E-05	1.108E-03
8218.000	2.849	3479.252	-1179240.356	-8.385E-05	1.009E-03
8219.000	2.616	3479.216	-1179237.549	-5.408E-05	1.204E-03
8220.000	2.839	3479.259	-1179234.863	-6.684E-05	1.081E-03
8221.000	2.737	3479.254	-1179232.422	-6.623E-05	1.080E-03
8222.000	2.689	3479.215	-1179229.614	-5.347E-05	1.096E-03
8223.000	2.708	3479.235	-1179227.173	-6.380E-05	1.102E-03
8224.000	2.893	3479.247	-1179224.121	-6.501E-05	1.207E-03
8225.000	2.747	3479.271	-1179221.191	-6.866E-05	1.123E-03
8226.000	2.698	3479.313	-1179218.262	-5.347E-05	1.110E-03
8227.000	2.932	3479.300	-1179215.332	-7.534E-05	1.136E-03
8228.000	2.689	3479.342	-1179212.769	-8.446E-05	1.138E-03
8229.000	2.640	3479.323	-1179210.083	-5.408E-05	1.082E-03
8230.000	2.518	3479.317	-1179207.520	-6.380E-05	9.922E-04
8231.000	2.786	3479.342	-1179204.712	-6.744E-05	1.053E-03
8232.000	2.587	3479.333	-1179202.148	-5.590E-05	1.158E-03
8233.000	2.484	3479.375	-1179199.585	-5.286E-05	1.025E-03
8234.000	2.718	3479.371	-1179197.144	-4.071E-05	1.081E-03
8235.000	2.708	3479.402	-1179194.580	-6.197E-05	1.048E-03
8236.000	2.664	3479.333	-1179192.139	-6.562E-05	1.071E-03
8237.000	2.679	3479.407	-1179189.453	-7.899E-05	9.946E-04
8238.000	2.912	3479.372	-1179186.646	-6.623E-05	1.113E-03
8239.000	2.538	3479.408	-1179184.082	-5.529E-05	1.131E-03
8240.000	2.732	3479.364	-1179181.396	-5.165E-05	1.234E-03
8241.000	2.835	3479.416	-1179178.833	-6.015E-05	1.097E-03
8242.000	2.732	3479.433	-1179176.147	-5.954E-05	1.006E-03
8243.000	2.645	3479.434	-1179173.706	-5.529E-05	1.120E-03
8244.000	2.810	3479.450	-1179171.021	-7.656E-05	1.059E-03
8245.000	2.830	3479.456	-1179168.213	-4.314E-05	1.144E-03
8246.000	2.543	3479.443	-1179165.771	-6.562E-05	9.612E-04
8247.000	2.645	3479.459	-1179163.330	-8.506E-05	1.168E-03
8248.000	2.635	3479.450	-1179160.889	-6.137E-05	1.015E-03
8249.000	2.796	3479.472	-1179158.081	-6.805E-05	1.119E-03
8249.600	2.630	3479.498	-1179156.616	-5.833E-05	1.027E-03
8249.800	502.126	3516.648	-1179056.152	-6.623E-05	1.124E-03
8250.200	502.559	3517.785	-1178855.225	-7.595E-05	1.129E-03
8251.000	502.393	3518.716	-1178453.369	-6.623E-05	1.195E-03
8252.000	502.413	3519.633	-1177951.050	-7.656E-05	1.143E-03
8253.000	502.457	3520.373	-1177448.486	-6.927E-05	1.116E-03
8254.000	502.602	3520.962	-1176946.167	-7.534E-05	1.185E-03
8255.000	502.559	3521.569	-1176443.726	-7.838E-05	1.083E-03
8256.000	502.452	3522.094	-1175941.284	-6.197E-05	1.032E-03
8257.000	502.539	3522.568	-1175438.721	-6.258E-05	1.041E-03
8258.000	502.612	3522.995	-1174936.035	-7.230E-05	1.120E-03
8259.000	502.661	3523.494	-1174433.472	-6.137E-05	1.089E-03
8260.000	502.709	3523.868	-1173930.542	-5.894E-05	1.063E-03
8261.000	502.622	3524.250	-1173427.856	-5.104E-05	9.412E-04
8262.000	502.670	3524.632	-1172924.927	-4.071E-05	1.164E-03
8263.000	502.641	3524.936	-1172422.119	-6.987E-05	1.071E-03
8264.000	502.719	3525.270	-1171919.189	-4.132E-05	1.082E-03
8265.000	502.729	3525.624	-1171416.382	-6.684E-05	1.027E-03
8266.000	502.685	3525.899	-1170913.574	-6.501E-05	1.128E-03
8267.000	502.811	3526.209	-1170410.645	-4.922E-05	1.061E-03
8268.000	502.680	3526.488	-1169907.715	-4.253E-05	1.171E-03
8269.000	502.709	3526.769	-1169404.907	-4.739E-05	1.052E-03
8270.000	502.627	3527.055	-1168902.100	-6.258E-05	1.099E-03
8271.000	502.787	3527.318	-1168399.536	-5.711E-05	1.013E-03
8272.000	502.563	3527.565	-1167896.973	-4.618E-05	1.095E-03
8273.000	502.797	3527.784	-1167394.165	-5.772E-05	1.043E-03
8274.000	502.534	3528.013	-1166891.846	-5.225E-05	1.131E-03
8275.000	502.539	3528.234	-1166389.404	-6.501E-05	1.131E-03
8276.000	502.568	3528.458	-1165886.963	-5.347E-05	1.059E-03
8277.000	502.598	3528.688	-1165384.277	-7.170E-05	1.083E-03
8278.000	502.602	3528.903	-1164881.836	-6.076E-05	1.154E-03
8279.000	502.612	3529.075	-1164379.395	-7.656E-05	1.125E-03
8280.000	502.627	3529.314	-1163876.831	-4.618E-05	1.142E-03
8281.000	502.563	3529.501	-1163374.390	-5.772E-05	1.174E-03
8282.000	502.656	3529.726	-1162871.704	-6.501E-05	1.003E-03
8283.000	502.515	3529.920	-1162369.263	-7.230E-05	1.089E-03
8284.000	502.510	3530.084	-1161866.699	-6.015E-05	1.228E-03
8285.000	502.661	3530.280	-1161363.892	-6.684E-05	1.041E-03
8286.000	502.486	3530.465	-1160861.572	-6.501E-05	1.040E-03
8287.000	502.510	3530.610	-1160359.131	-5.286E-05	1.025E-03
8288.000	502.500	3530.788	-1159856.567	-5.590E-05	1.113E-03
8289.000	502.675	3530.962	-1159353.760	-6.987E-05	1.113E-03
8290.000	502.549	3531.133	-1158851.318	-6.927E-05	9.898E-04
8291.000	502.549	3531.261	-1158348.999	-5.894E-05	9.928E-04
8292.000	502.700	3531.463	-1157846.313	-7.048E-05	1.117E-03
8293.000	502.661	3531.600	-1157343.750	-5.590E-05	1.128E-03
8294.000	502.500	3531.746	-1156841.187	-6.987E-05	1.069E-03
8295.000	502.670	3531.896	-1156338.745	-5.347E-05	1.164E-03
8296.000	502.510	3532.045	-1155835.938	-5.286E-05	1.083E-03
8297.000	502.773	3532.192	-1155333.008	-5.711E-05	1.033E-03
8298.000	502.782	3532.300	-1154830.322	-7.838E-05	1.072E-03
8299.000	502.505	3532.414	-1154327.759	-6.623E-05	9.934E-04
8300.000	502.573	3532.551	-1153824.951	-5.772E-05	1.035E-03
8301.000	502.568	3532.712	-1153322.510	-6.441E-05	1.156E-03
8302.000	502.549	3532.870	-1152819.824	-6.441E-05	1.114E-03
8303.000	502.675	3532.968	-1152317.139	-5.043E-05	1.054E-03
8303.600	502.559	3533.056	-1152015.625	-5.772E-05	1.071E-03
8303.800	3.053	3496.368	-1152015.015	-5.104E-05	1.085E-03
8304.200	2.800	3495.408	-1152013.794	-5.590E-05	1.036E-03
8305.000	2.655	3494.548	-1152011.719	-8.203E-05	1.094E-03
8306.000	2.742	3493.845	-1152009.155	-5.894E-05	1.168E-03
8307.000	2.786	3493.330	-1152006.592	-6.623E-05	1.018E-03
8308.000	2.903	3492.836	-1152003.662	-7.716E-05	1.060E-03
8309.000	2.659	3492.458	-1152001.221	-7.716E-05	1.102E-03
8310.000	2.523	3492.109	-1151998.657	-5.165E-05	1.089E-03
8311.000	2.533	3491.785	-1151996.094	-6.258E-05	1.074E-03
8312.000	2.606	3491.477	-1151993.652	-6.319E-05	1.054E-03
8313.000	2.625	3491.247	-1151991.211	-7.170E-05	9.235E-04
8314.000	2.630	3491.002	-1151988.770	-5.347E-05	1.205E-03
8315.000	2.655	3490.790	-1151986.328	-5.408E-05	1.134E-03
8316.000	2.684	3490.596	-1151983.887	-4.010E-05	1.003E-03
8317.000	2.640	3490.350	-1151981.445	-6.015E-05	1.009E-03
8318.000	2.674	3490.235	-1151979.004	-7.291E-05	1.078E-03
8319.000	2.659	3490.010	-1151976.563	-6.562E-05	1.184E-03
8320.000	2.645	3489.869	-1151974.121	-5.954E-05	1.010E-03
8321.000	2.820	3489.733	-1151971.558	-5.286E-05	1.116E-03
8322.000	2.587	3489.623	-1151969.116	-6.866E-05	1.153E-03
8323.000	2.650	3489.494	-1151966.675	-6.380E-05	1.173E-03
8324.000	2.732	3489.326	-1151964.233	-5.043E-05	1.092E-03
8325.000	2.713	3489.265	-1151961.670	-4.800E-05	9.801E-04
8326.000	2.616	3489.152	-1151959.106	-6.015E-05	1.065E-03
8327.000	2.645	3489.068	-1151956.665	-6.076E-05	1.044E-03
8328.000	2.684	3488.931	-1151954.102	-7.352E-05	1.082E-03
8329.000	2.776	3488.896	-1151951.294	-5.651E-05	1.208E-03
8330.000	2.742	3488.777	-1151948.608	-5.833E-05	1.140E-03
8331.000	2.689	3488.704	-1151945.923	-4.132E-05	1.066E-03
8332.000	2.752	3488.640	-1151943.237	-5.590E-05	1.041E-03
8333.000	2.781	3488.517	-1151940.674	-5.104E-05	1.170E-03
8334.000	2.796	3488.515	-1151937.988	-6.258E-05	1.182E-03
8335.000	2.728	3488.414	-1151935.303	-7.777E-05	1.103E-03
8336.000	2.684	3488.366	-1151932.495	-7.230E-05	1.120E-03
8337.000	2.718	3488.286	-1151930.054	-5.894E-05	1.003E-03
8338.000	2.640	3488.244	-1151927.368	-5.286E-05	9.886E-04
8339.000	2.728	3488.170	-1151924.683	-7.230E-05	1.109E-03
8340.000	2.791	3488.073	-1151922.119	-5.833E-05	1.027E-03
8341.000	2.679	3488.089	-1151919.556	-5.043E-05	1.055E-03
8342.000	2.689	3488.014	-1151916.992	-6.987E-05	1.026E-03
8343.000	2.577	3487.985	-1151914.551	-5.468E-05	9.898E-04
8344.000	2.553	3487.894	-1151911.987	-5.408E-05	1.075E-03
8345.000	2.650	3487.881	-1151909.302	-5.347E-05	1.081E-03
8346.000	2.708	3487.850	-1151906.860	-5.529E-05	1.017E-03
8347.000	2.645	3487.804	-1151904.297	-6.501E-05	1.024E-03
8348.000	2.698	3487.758	-1151901.733	-6.015E-05	1.007E-03
8349.000	2.786	3487.719	-1151898.926	-8.324E-05	1.098E-03
8350.000	2.903	3487.666	-1151896.118	-6.441E-05	1.102E-03
8351.000	2.762	3487.677	-1151893.311	-6.137E-05	1.075E-03
8352.000	2.805	3487.632	-1151890.381	-7.048E-05	1.075E-03
8353.000	2.703	3487.620	-1151887.695	-6.137E-05	1.011E-03
8354.000	2.728	3487.552	-1151885.132	-6.197E-05	1.074E-03
8355.000	2.616	3487.539	-1151882.690	-5.954E-05	1.108E-03
8356.000	2.800	3487.494	-1151880.127	-5.225E-05	1.172E-03
8357.000	2.762	3487.496	-1151877.563	-4.375E-05	1.113E-03
8358.000	2.776	3487.452	-1151874.756	-6.380E-05	1.119E-03
8359.000	2.708	3487.428	-1151872.314	-5.165E-05	1.140E-03
8360.000	2.796	3487.419	-1151869.507	-6.137E-05	1.094E-03
8361.000	2.625	3487.359	-1151866.821	-5.651E-05	1.148E-03
8362.000	2.873	3487.367	-1151864.258	-6.866E-05	1.058E-03
8363.000	2.655	3487.323	-1151861.572	-4.435E-05	1.124E-03
8364.000	2.494	3487.259	-1151858.887	-5.954E-05	1.057E-03
8365.000	2.625	3487.276	-1151856.445	-4.375E-05	1.034E-03
8366.000	2.766	3487.274	-1151853.760	-5.833E-05	1.117E-03
8367.000	2.757	3487.216	-1151851.074	-5.408E-05	1.078E-03
8368.000	2.514	3487.230	-1151848.389	-6.076E-05	1.179E-03
8369.000	2.723	3487.200	-1151845.703	-6.197E-05	1.043E-03
8370.000	2.820	3487.196	-1151843.018	-7.109E-05	9.491E-04
8371.000	2.752	3487.172	-1151840.332	-5.408E-05	1.075E-03
8372.000	2.732	3487.187	-1151837.646	-5.590E-05	1.078E-03
8373.000	2.771	3487.157	-1151834.961	-6.197E-05	9.880E-04
8374.000	2.907	3487.129	-1151832.275	-6.380E-05	9.612E-04
8375.000	2.830	3487.120	-1151829.346	-5.651E-05	1.051E-03
8376.000	2.781	3487.082	-1151826.660	-5.408E-05	1.140E-03
8377.000	2.839	3487.096	-1151823.975	-5.104E-05	1.085E-03
8378.000	2.723	3487.087	-1151821.289	-5.347E-05	1.023E-03
8379.000	2.757	3487.049	-1151818.481	-7.048E-05	9.582E-04
8380.000	2.601	3487.005	-1151815.918	-4.132E-05	1.042E-03
8381.000	2.601	3487.007	-1151813.477	-5.954E-05	1.099E-03
8382.000	2.664	3487.023	-1151811.035	-7.291E-05	1.125E-03
8383.000	2.723	3486.991	-1151808.594	-5.590E-05	1.066E-03
8384.000	2.621	3486.972	-1151806.152	-6.380E-05	1.112E-03
8385.000	2.587	3486.969	-1151803.711	-5.894E-05	1.091E-03
8386.000	2.669	3486.953	-1151801.147	-5.165E-05	1.035E-03
8387.000	2.611	3486.941	-1151798.706	-5.651E-05	1.021E-03
8388.000	2.645	3486.922	-1151796.143	-5.651E-05	1.082E-03
8389.000	2.694	3486.896	-1151793.579	-5.408E-05	1.122E-03
8390.000	2.582	3486.934	-1151791.138	-6.684E-05	1.068E-03
8391.000	2.518	3486.904	-1151788.696	-6.015E-05	1.133E-03
8392.000	2.548	3486.877	-1151786.255	-6.805E-05	1.000E-03
8393.000	2.737	3486.864	-1151783.691	-5.286E-05	1.218E-03
8394.000	2.805	3486.878	-1151780.762	-6.197E-05	1.013E-03
8395.000	2.796	3486.884	-1151777.954	-7.109E-05	1.148E-03
8396.000	2.591	3486.861	-1151775.391	-6.015E-05	9.801E-04
8397.000	2.747	3486.840	-1151772.583	-6.137E-05	1.078E-03
8398.000	2.732	3486.837	-1151770.142	-5.165E-05	1.120E-03
8399.000	2.873	3486.823	-1151767.334	-5.772E-05	1.103E-03
8400.000	2.635	3486.825	-1151764.771	-7.291E-05	1.106E-03
8401.000	2.650	3486.777	-1151762.329	-6.684E-05	1.179E-03
8402.000	2.645	3486.769	-1151759.888	-5.529E-05	1.076E-03
8403.000	2.523	3486.785	-1151757.446	-5.043E-05	9.199E-04
8404.000	2.635	3486.771	-1151754.761	-5.347E-05	9.940E-04
8405.000	2.728	3486.780	-1151752.319	-6.380E-05	1.162E-03
8406.000	2.655	3486.702	-1151749.634	-5.711E-05	1.078E-03
8407.000	2.674	3486.782	-1151746.948	-5.529E-05	9.837E-04
8408.000	2.771	3486.731	-1151744.019	-6.137E-05	9.971E-04
8409.000	2.810	3486.731	-1151741.089	-4.678E-05	1.116E-03
8410.000	2.737	3486.719	-1151738.281	-5.043E-05	1.154E-03
8411.000	2.820	3486.732	-1151735.229	-6.562E-05	1.022E-03
8412.000	2.645	3486.743	-1151732.666	-5.711E-05	1.111E-03
8413.000	2.776	3486.710	-1151729.858	-7.291E-05	1.110E-03
8414.000	2.567	3486.682	-1151727.417	-5.651E-05	1.135E-03
8415.000	2.591	3486.664	-1151724.976	-5.165E-05	1.126E-03
8416.000	2.591	3486.676	-1151722.534	-6.866E-05	1.055E-03
8417.000	2.625	3486.666	-1151719.971	-4.253E-05	1.131E-03
8418.000	2.742	3486.670	-1151717.407	-5.894E-05	1.057E-03
8419.000	2.771	3486.644	-1151714.478	-6.744E-05	1.139E-03
8420.000	2.771	3486.683	-1151711.670	-6.015E-05	1.096E-03
8421.000	2.805	3486.647	-1151708.740	-6.380E-05	1.116E-03
8422.000	2.630	3486.650	-1151706.177	-6.744E-05	1.156E-03
8423.000	2.635	3486.659	-1151703.491	-5.954E-05	9.630E-04
8423.600	2.655	3486.627	-1151701.782	-7.777E-05	1.111E-03
8423.800	-496.997	3449.539	-1151801.147	-5.286E-05	1.089E-03
8424.200	-497.096	3448.419	-1151999.878	-4.010E-05	1.078E-03
8425.000	-497.262	3447.360	-1152397.827	-6.319E-05	1.029E-03
8426.000	-497.330	3446.449	-1152895.264	-4.557E-05	1.106E-03
8427.000	-497.296	3445.683	-1153392.700	-5.347E-05	1.026E-03
8428.000	-497.232	3445.040	-1153889.893	-6.197E-05	1.044E-03
8429.000	-497.325	3444.381	-1154387.329	-6.805E-05	1.045E-03
8430.000	-497.317	3443.790	-1154884.766	-4.861E-05	9.333E-04
8431.000	-497.240	3443.352	-1155382.202	-6.076E-05	1.167E-03
8432.000	-497.420	3442.851	-1155879.517	-4.922E-05	1.128E-03
8433.000	-497.381	3442.407	-1156376.953	-4.922E-05	1.064E-03
8434.000	-497.347	3442.002	-1156874.390	-5.408E-05	1.030E-03
8435.000	-497.403	3441.570	-1157371.826	-7.109E-05	1.172E-03
8436.000	-497.201	3441.229	-1157869.263	-5.590E-05	1.100E-03
8437.000	-497.240	3440.801	-1158366.699	-7.838E-05	1.132E-03
8438.000	-497.155	3440.480	-1158864.136	-5.772E-05	1.145E-03
8439.000	-497.264	3440.163	-1159361.450	-6.684E-05	1.026E-03
8440.000	-497.310	3439.836	-1159858.765	-5.408E-05	9.691E-04
8441.000	-497.352	3439.509	-1160356.201	-6.562E-05	1.173E-03
8442.000	-497.296	3439.177	-1160853.638	-6.927E-05	1.237E-03
8443.000	-497.208	3438.889	-1161351.074	-7.413E-05	1.170E-03
8444.000	-497.369	3438.604	-1161848.511	-6.684E-05	1.108E-03
8445.000	-497.339	3438.306	-1162345.947	-4.192E-05	1.102E-03
8446.000	-497.191	3438.020	-1162843.384	-3.889E-05	1.028E-03
8447.000	-497.174	3437.773	-1163340.698	-4.739E-05	1.137E-03
8448.000	-497.310	3437.527	-1163838.013	-4.618E-05	9.952E-04
8449.000	-497.213	3437.275	-1164335.449	-6.623E-05	1.061E-03
8450.000	-497.434	3436.996	-1164832.764	-4.982E-05	1.037E-03
8451.000	-496.994	3436.776	-1165330.078	-5.043E-05	9.867E-04
8452.000	-497.259	3436.541	-1165827.515	-4.314E-05	1.029E-03
8453.000	-497.330	3436.322	-1166324.951	-5.529E-05	1.197E-03
8454.000	-497.352	3436.059	-1166822.388	-6.684E-05	1.046E-03
8455.000	-497.361	3435.870	-1167319.824	-6.623E-05	1.049E-03
8456.000	-497.330	3435.652	-1167817.261	-4.982E-05	1.066E-03
8457.000	-497.252	3435.468	-1168314.697	-5.772E-05	1.156E-03
8458.000	-497.252	3435.217	-1168812.134	-5.833E-05	1.115E-03
8459.000	-497.240	3435.064	-1169309.570	-3.889E-05	1.149E-03
8460.000	-497.393	3434.887	-1169807.007	-5.954E-05	1.111E-03
8461.000	-497.274	3434.669	-1170304.443	-3.767E-05	1.127E-03
8462.000	-497.276	3434.479	-1170801.880	-4.010E-05	1.119E-03
8463.000	-497.432	3434.278	-1171299.316	-6.866E-05	1.065E-03
8464.000	-497.254	3434.093	-1171796.753	-7.291E-05	1.206E-03
8465.000	-497.366	3433.955	-1172294.189	-6.866E-05	1.129E-03
8466.000	-497.390	3433.755	-1172791.626	-5.225E-05	1.048E-03
8467.000	-497.310	3433.569	-1173289.063	-6.076E-05	1.195E-03
8468.000	-497.283	3433.409	-1173786.499	-4.922E-05	1.201E-03
8469.000	-497.466	3433.276	-1174283.936	-6.562E-05	1.006E-03
8470.000	-497.378	3433.093	-1174781.372	-5.043E-05	1.147E-03
8471.000	-497.386	3432.951	-1175278.809	-5.894E-05	1.126E-03
8472.000	-497.140	3432.762	-1175776.245	-5.954E-05	1.012E-03
8473.000	-497.322	3432.618	-1176273.560	-6.258E-05	1.102E-03
8474.000	-497.159	3432.458	-1176770.874	-4.557E-05	1.106E-03
8475.000	-497.252	3432.361	-1177268.311	-6.866E-05	1.125E-03
8476.000	-497.091	3432.147	-1177765.625	-6.015E-05	1.103E-03
8477.000	-497.288	3432.086	-1178263.062	-5.711E-05	1.179E-03
8477.600	-497.150	3431.986	-1178561.401	-5.104E-05	1.092E-03
8477.800	2.377	3469.523	-1178560.913	-6.137E-05	1.154E-03
8478.200	2.737	3470.738	-1178559.937	-5.165E-05	1.181E-03
8479.000	2.606	3471.676	-1178557.983	-6.137E-05	1.167E-03
8480.000	2.873	3472.397	-1178555.298	-8.263E-05	1.091E-03
8481.000	2.577	3472.996	-1178552.734	-4.800E-05	1.040E-03
8482.000	2.752	3473.459	-1178550.049	-5.529E-05	9.873E-04
8483.000	2.640	3473.887	-1178547.485	-6.197E-05	1.010E-03
8484.000	2.674	3474.272	-1178545.044	-5.225E-05	1.109E-03
8485.000	2.669	3474.532	-1178542.603	-6.197E-05	1.072E-03
8486.000	2.781	3474.844	-1178540.039	-6.015E-05	9.892E-04
8487.000	2.903	3475.117	-1178537.231	-6.197E-05	1.161E-03
8488.000	2.689	3475.389	-1178534.546	-6.562E-05	1.010E-03
8489.000	2.698	3475.567	-1178531.616	-4.496E-05	1.064E-03
8490.000	2.732	3475.785	-1178528.931	-7.473E-05	1.108E-03
8491.000	2.825	3475.981	-1178526.001	-5.104E-05	1.164E-03
8492.000	2.694	3476.151	-1178523.193	-4.739E-05	1.061E-03
8493.000	2.742	3476.320	-1178520.508	-4.861E-05	1.078E-03
8494.000	2.562	3476.436	-1178517.944	-4.861E-05	1.184E-03
8495.000	2.625	3476.655	-1178515.259	-5.954E-05	1.122E-03
8496.000	2.650	3476.748	-1178512.695	-5.468E-05	1.166E-03
8497.000	2.606	3476.865	-1178510.010	-5.590E-05	1.125E-03
8498.000	2.742	3477.018	-1178507.324	-5.772E-05	1.236E-03
8499.000	2.757	3477.084	-1178504.517	-5.468E-05	1.158E-03
8500.000	2.762	3477.212	-1178501.709	-4.800E-05	1.012E-03
8501.000	2.679	3477.343	-1178499.146	-4.800E-05	1.222E-03
8502.000	2.781	3477.447	-1178496.460	-5.894E-05	1.134E-03
8503.000	2.611	3477.525	-1178493.896	-5.651E-05	1.188E-03
8504.000	2.645	3477.584	-1178491.455	-7.473E-05	1.143E-03
8505.000	2.659	3477.704	-1178488.892	-5.286E-05	1.097E-03
8506.000	2.674	3477.795	-1178486.206	-6.076E-05	1.111E-03
8507.000	2.689	3477.831	-1178483.398	-5.408E-05	1.080E-03
8508.000	2.728	3477.860	-1178480.591	-5.043E-05	1.015E-03
8509.000	2.689	3477.989	-1178477.905	-6.076E-05	1.103E-03
8510.000	2.601	3478.056	-1178475.464	-5.043E-05	1.086E-03
8511.000	2.694	3478.076	-1178472.900	-6.501E-05	1.174E-03
8512.000	2.742	3478.178	-1178470.337	-6.744E-05	1.047E-03
8513.000	2.640	3478.201	-1178467.773	-5.954E-05	9.339E-04
8514.000	2.737	3478.278	-1178465.210	-5.954E-05	1.158E-03
8515.000	2.664	3478.318	-1178462.769	-4.678E-05	1.082E-03
8516.000	2.582	3478.399	-1178460.083	-6.319E-05	9.223E-04
8517.000	2.757	3478.431	-1178457.397	-5.165E-05	1.111E-03
8518.000	2.786	3478.500	-1178454.468	-6.076E-05	1.133E-03
8519.000	2.796	3478.524	-1178451.660	-4.861E-05	1.052E-03
8520.000	2.878	3478.572	-1178448.730	-4.800E-05	1.051E-03
8521.000	2.728	3478.583	-1178445.923	-5.894E-05	1.139E-03
8522.000	2.674	3478.653	-1178443.115	-6.076E-05	1.051E-03
8523.000	2.659	3478.687	-1178440.308	-6.866E-05	1.222E-03
8524.000	2.698	3478.719	-1178437.866	-4.922E-05	1.073E-03
8525.000	2.718	3478.745	-1178435.181	-5.954E-05	1.127E-03
8526.000	2.723	3478.797	-1178432.739	-3.949E-05	1.165E-03
8527.000	2.591	3478.826	-1178430.054	-6.137E-05	9.946E-04
8528.000	2.757	3478.858	-1178427.368	-5.468E-05	1.073E-03
8529.000	2.810	3478.947	-1178424.561	-4.132E-05	1.063E-03
8530.000	2.737	3478.930	-1178421.753	-4.922E-05	1.157E-03
8531.000	2.825	3478.967	-1178418.945	-6.501E-05	1.049E-03
8532.000	2.630	3478.987	-1178416.260	-5.104E-05	1.085E-03
8533.000	2.655	3478.998	-1178413.574	-5.772E-05	1.140E-03
8534.000	2.805	3479.055	-1178410.645	-6.137E-05	1.088E-03
8535.000	2.805	3479.085	-1178407.837	-6.744E-05	1.017E-03
8536.000	2.737	3479.102	-1178405.029	-6.015E-05	1.133E-03
8537.000	2.820	3479.130	-1178402.100	-4.922E-05	9.169E-04
8538.000	2.747	3479.114	-1178399.414	-5.651E-05	1.122E-03
8539.000	2.703	3479.186	-1178396.606	-5.833E-05	1.139E-03
8540.000	2.849	3479.198	-1178393.677	-4.922E-05	1.103E-03
8541.000	2.694	3479.142	-1178391.113	-5.104E-05	9.630E-04
8542.000	2.611	3479.237	-1178388.672	-5.954E-05	1.102E-03
8543.000	2.728	3479.261	-1178386.230	-5.104E-05	1.164E-03
8544.000	2.640	3479.279	-1178383.667	-6.684E-05	1.052E-03
8545.000	2.664	3479.272	-1178381.226	-6.744E-05	1.084E-03
8546.000	2.752	3479.308	-1178378.662	-6.501E-05	1.174E-03
8547.000	2.713	3479.350	-1178376.099	-5.651E-05	1.039E-03
8548.000	2.849	3479.347	-1178373.413	-5.590E-05	1.119E-03
8549.000	2.796	3479.351	-1178370.361	-4.253E-05	1.198E-03
8550.000	2.718	3479.373	-1178367.676	-6.441E-05	1.159E-03
8551.000	2.708	3479.402	-1178365.112	-5.347E-05	1.117E-03
8552.000	2.655	3479.457	-1178362.671	-7.777E-05	1.132E-03
8553.000	2.689	3479.431	-1178360.229	-4.861E-05	1.122E-03
8554.000	2.708	3479.475	-1178357.666	-5.590E-05	1.130E-03
8555.000	2.679	3479.446	-1178355.103	-3.889E-05	1.140E-03
8556.000	2.723	3479.517	-1178352.539	-6.319E-05	1.109E-03
8557.000	2.679	3479.526	-1178350.098	-8.203E-05	1.104E-03
8558.000	2.694	3479.481	-1178347.656	-7.230E-05	1.095E-03
8559.000	2.630	3479.500	-1178344.849	-6.380E-05	1.120E-03
8560.000	2.669	3479.565	-1178342.285	-7.960E-05	1.072E-03
8561.000	2.737	3479.582	-1178339.844	-5.347E-05	1.117E-03
8562.000	2.718	3479.547	-1178337.402	-5.772E-05	1.028E-03
8563.000	2.659	3479.570	-1178334.717	-5.894E-05	9.995E-04
8564.000	2.776	3479.610	-1178331.909	-5.954E-05	9.594E-04
8565.000	2.732	3479.615	-1178329.224	-6.197E-05	1.100E-03
8566.000	2.713	3479.641	-1178326.782	-5.529E-05	1.095E-03
8567.000	2.625	3479.655	-1178324.219	-4.618E-05	1.024E-03
8568.000	2.732	3479.607	-1178321.655	-7.716E-05	1.139E-03
8569.000	2.587	3479.677	-1178319.214	-4.496E-05	1.143E-03
8570.000	2.713	3479.687	-1178316.650	-6.501E-05	1.054E-03
8571.000	2.587	3479.676	-1178314.209	-4.861E-05	1.131E-03
8572.000	2.723	3479.719	-1178311.646	-5.711E-05	1.109E-03
8573.000	2.728	3479.751	-1178308.960	-6.562E-05	1.075E-03
8574.000	2.713	3479.733	-1178306.152	-5.468E-05	1.002E-03
8575.000	2.805	3479.748	-1178303.467	-6.562E-05	1.100E-03
8576.000	2.698	3479.794	-1178300.781	-3.889E-05	9.886E-04
8577.000	2.762	3479.779	-1178297.974	-5.590E-05	9.983E-04
8578.000	2.659	3479.785	-1178295.044	-6.137E-05	1.164E-03
8579.000	2.791	3479.799	-1178292.114	-4.253E-05	9.776E-04
8580.000	2.708	3479.819	-1178289.429	-6.076E-05	1.182E-03
8581.000	2.732	3479.829	-1178286.865	-5.104E-05	1.193E-03
8582.000	2.635	3479.810	-1178284.302	-5.772E-05	1.012E-03
8583.000	2.723	3479.827	-1178281.738	-4.861E-05	1.001E-03
8584.000	2.839	3479.846	-1178278.931	-3.463E-05	1.091E-03
8585.000	2.873	3479.822	-1178276.245	-5.711E-05	1.030E-03
8586.000	2.796	3479.835	-1178273.315	-6.562E-05	1.006E-03
8587.000	2.728	3479.877	-1178270.752	-7.109E-05	1.211E-03
8588.000	2.742	3479.890	-1178267.944	-5.225E-05	1.054E-03
8589.000	2.776	3479.864	-1178265.259	-6.441E-05	1.112E-03
8590.000	2.659	3479.905	-1178262.817	-6.562E-05	1.055E-03
8591.000	2.844	3479.905	-1178260.254	-7.413E-05	1.105E-03
8592.000	2.825	3479.905	-1178257.446	-6.015E-05	1.150E-03
8593.000	2.732	3479.942	-1178255.005	-5.651E-05	1.089E-03
8594.000	2.538	3479.865	-1178252.319	-6.562E-05	1.150E-03
8595.000	2.708	3479.934	-1178249.756	-5.408E-05	9.624E-04
8596.000	2.728	3479.928	-1178247.314	-4.739E-05	1.094E-03
8597.000	2.645	3479.959	-1178244.751	-8.446E-05	1.074E-03
8597.600	2.771	3479.975	-1178242.920	-5.408E-05	1.025E-03
8597.800	1251.233	3572.417	-1177992.676	-7.291E-05	9.254E-04
8598.000	1252.133	3574.083	-1177742.310	-6.987E-05	1.154E-03
8598.400	1252.172	3575.687	-1177241.333	-5.772E-05	1.052E-03
8598.800	1252.565	3576.844	-1176740.356	-6.380E-05	1.018E-03
8599.400	1252.527	3578.190	-1175988.892	-5.894E-05	1.135E-03
8600.000	1252.322	3579.357	-1175237.427	-5.954E-05	1.107E-03
8600.600	1252.400	3580.368	-1174485.962	-6.866E-05	1.159E-03
8601.400	1252.390	3581.600	-1173484.009	-6.987E-05	1.154E-03
8602.200	1252.429	3582.717	-1172482.056	-6.501E-05	1.145E-03
8603.000	1252.575	3583.788	-1171480.103	-6.562E-05	1.053E-03
8604.000	1252.502	3584.948	-1170227.661	-7.473E-05	9.746E-04
8605.000	1252.663	3586.081	-1168975.220	-5.043E-05	1.011E-03
8606.000	1252.609	3587.029	-1167722.778	-6.319E-05	1.144E-03
8607.000	1252.682	3588.040	-1166470.337	-6.137E-05	1.117E-03
8608.000	1252.716	3588.950	-1165217.651	-6.501E-05	1.160E-03
8609.000	1252.624	3589.769	-1163965.210	-6.441E-05	1.016E-03
8610.000	1252.483	3590.549	-1162712.769	-7.048E-05	1.111E-03
8611.000	1252.629	3591.309	-1161460.327	-5.165E-05	1.148E-03
8612.000	1252.449	3591.995	-1160207.886	-7.291E-05	1.042E-03
8613.000	1252.643	3592.676	-1158955.444	-5.529E-05	1.050E-03
8614.000	1252.590	3593.386	-1157703.003	-5.468E-05	1.147E-03
8615.000	1252.434	3593.942	-1156450.562	-6.197E-05	1.058E-03
8616.000	1252.570	3594.574	-1155198.120	-5.347E-05	1.156E-03
8617.000	1252.468	3595.111	-1153945.679	-5.894E-05	1.120E-03
8618.000	1252.570	3595.693	-1152693.237	-7.534E-05	1.018E-03
8619.000	1252.497	3596.207	-1151440.796	-6.562E-05	1.053E-03
8619.200	1252.473	3596.292	-1151190.308	-4.922E-05	1.185E-03
8619.400	3.627	3505.476	-1151189.575	-5.225E-05	1.009E-03
8619.600	3.194	3504.132	-1151188.965	-4.314E-05	1.095E-03
8620.000	2.912	3502.772	-1151187.744	-4.922E-05	1.080E-03
8620.600	2.951	3501.526	-1151185.913	-6.137E-05	1.133E-03
8621.400	2.830	3500.265	-1151183.594	-5.347E-05	1.135E-03
8622.400	2.742	3499.057	-1151180.664	-3.889E-05	1.199E-03
8623.400	2.946	3498.129	-1151177.856	-5.590E-05	1.021E-03
8624.400	2.732	3497.279	-1151175.049	-6.684E-05	1.112E-03
8625.400	2.689	3496.580	-1151172.363	-6.927E-05	1.051E-03
8626.400	2.757	3495.940	-1151169.434	-5.833E-05	1.102E-03
8627.400	2.893	3495.387	-1151166.626	-4.496E-05	1.061E-03
8628.400	2.839	3494.860	-1151163.696	-5.408E-05	1.053E-03
8629.400	2.742	3494.431	-1151160.889	-5.651E-05	1.148E-03
8630.400	2.854	3493.995	-1151157.837	-6.441E-05	1.113E-03
8631.400	2.747	3493.630	-1151154.907	-7.109E-05	1.049E-03
8632.400	2.898	3493.294	-1151151.978	-5.225E-05	1.216E-03
8633.400	2.961	3492.928	-1151149.048	-4.314E-05	1.164E-03
8634.400	2.771	3492.657	-1151145.996	-4.435E-05	1.069E-03
8635.400	2.776	3492.399	-1151143.188	-5.347E-05	1.067E-03
8636.400	2.776	3492.132	-1151140.137	-7.109E-05	1.074E-03
8637.400	2.781	3491.862	-1151137.085	-6.015E-05	1.161E-03
8638.400	2.825	3491.670	-1151134.033	-5.590E-05	1.048E-03
8639.400	2.820	3491.444	-1151131.104	-6.441E-05	1.180E-03
8640.400	2.747	3491.236	-1151128.052	-5.529E-05	1.061E-03
8641.400	2.742	3491.042	-1151125.122	-6.319E-05	1.163E-03
8642.400	2.907	3490.852	-1151122.192	-5.954E-05	1.178E-03
8643.400	2.771	3490.733	-1151119.263	-6.805E-05	9.880E-04
8644.400	2.966	3490.551	-1151116.333	-6.197E-05	1.038E-03
8645.400	2.830	3490.424	-1151113.403	-5.954E-05	1.043E-03
8646.400	2.849	3490.274	-1151110.474	-4.253E-05	1.149E-03
8647.400	2.669	3490.118	-1151107.788	-6.076E-05	1.099E-03
8648.400	2.859	3489.988	-1151104.858	-5.894E-05	1.086E-03
8649.400	2.995	3489.919	-1151101.807	-6.562E-05	1.126E-03
8650.400	2.966	3489.798	-1151098.999	-4.861E-05	1.085E-03
8651.400	2.844	3489.673	-1151095.947	-5.651E-05	1.074E-03
8652.400	2.873	3489.567	-1151092.896	-5.833E-05	1.034E-03
8653.400	2.689	3489.492	-1151090.210	-4.739E-05	1.173E-03
8654.400	2.766	3489.394	-1151087.158	-4.253E-05	1.203E-03
8655.400	2.825	3489.306	-1151084.229	-4.314E-05	1.207E-03
8656.400	2.698	3489.274	-1151081.665	-5.954E-05	1.188E-03
8657.400	2.820	3489.158	-1151078.613	-7.413E-05	1.139E-03
8658.400	2.781	3489.115	-1151075.562	-7.473E-05	1.107E-03
8659.400	2.825	3489.037	-1151072.876	-6.441E-05	1.111E-03
8660.400	3.005	3488.959	-1151069.824	-7.230E-05	1.147E-03
8661.400	2.771	3488.904	-1151066.772	-6.987E-05	1.150E-03
8662.400	2.971	3488.850	-1151063.965	-4.496E-05	1.017E-03
8663.400	2.893	3488.761	-1151060.913	-6.258E-05	9.807E-04
8664.400	2.776	3488.704	-1151057.861	-6.380E-05	1.105E-03
8665.400	2.543	3488.667	-1151055.298	-6.137E-05	9.977E-04
8666.400	2.718	3488.633	-1151052.612	-8.142E-05	1.178E-03
8667.400	2.815	3488.549	-1151049.805	-4.982E-05	1.064E-03
8668.400	2.825	3488.508	-1151046.753	-5.590E-05	1.091E-03
8669.400	2.655	3488.477	-1151044.067	-5.225E-05	1.072E-03
8670.400	2.771	3488.392	-1151041.138	-4.010E-05	1.060E-03
8671.400	2.732	3488.358	-1151038.330	-6.441E-05	1.018E-03
8672.400	2.825	3488.331	-1151035.522	-6.258E-05	1.126E-03
8673.400	2.718	3488.295	-1151032.715	-5.772E-05	1.130E-03
8674.400	2.864	3488.257	-1151029.785	-4.618E-05	1.063E-03
8675.400	2.689	3488.207	-1151026.855	-6.258E-05	9.618E-04
8676.400	2.766	3488.199	-1151024.048	-6.805E-05	1.091E-03
8677.400	2.796	3488.163	-1151020.996	-5.711E-05	1.093E-03
8678.400	2.791	3488.143	-1151018.066	-5.651E-05	1.125E-03
8679.400	2.869	3488.077	-1151015.137	-5.711E-05	1.183E-03
8680.400	2.659	3488.073	-1151012.207	-4.375E-05	1.165E-03
8681.400	2.854	3488.042	-1151009.399	-6.319E-05	1.186E-03
8682.400	2.820	3488.020	-1151006.348	-5.104E-05	1.161E-03
8683.400	2.786	3487.996	-1151003.296	-7.352E-05	1.052E-03
8684.400	2.742	3487.968	-1151000.610	-5.286E-05	1.113E-03
8685.400	2.903	3487.934	-1150997.559	-5.165E-05	1.032E-03
8686.400	2.878	3487.905	-1150994.629	-6.805E-05	1.032E-03
8687.400	2.849	3487.898	-1150991.821	-7.048E-05	1.114E-03
8688.400	2.703	3487.843	-1150989.014	-5.772E-05	1.086E-03
8689.400	2.698	3487.821	-1150986.328	-5.772E-05	1.099E-03
8690.400	2.839	3487.812	-1150983.276	-7.595E-05	1.183E-03
8691.400	2.732	3487.804	-1150980.469	-6.562E-05	1.168E-03
8692.400	2.878	3487.777	-1150977.539	-5.165E-05	1.099E-03
8693.400	2.912	3487.708	-1150974.731	-5.590E-05	1.010E-03
8694.400	2.859	3487.720	-1150971.924	-6.501E-05	9.035E-04
8695.400	2.781	3487.746	-1150969.116	-4.861E-05	9.424E-04
8696.400	2.708	3487.688	-1150966.309	-5.954E-05	1.062E-03
8697.400	2.903	3487.680	-1150963.257	-6.623E-05	1.058E-03
8698.400	2.752	3487.668	-1150960.205	-5.833E-05	1.134E-03
8699.400	2.679	3487.620	-1150957.397	-5.711E-05	1.099E-03
8700.400	2.694	3487.611	-1150954.712	-4.739E-05	1.065E-03
8701.400	2.747	3487.615	-1150951.660	-4.800E-05	1.085E-03
8702.400	2.728	3487.602	-1150948.975	-6.015E-05	1.091E-03
8703.400	2.903	3487.563	-1150946.045	-6.623E-05	1.039E-03
8704.400	2.669	3487.554	-1150943.237	-6.684E-05	1.194E-03
8705.400	2.766	3487.513	-1150940.430	-7.352E-05	1.112E-03
8706.400	2.771	3487.519	-1150937.500	-4.800E-05	1.120E-03
8707.400	2.844	3487.533	-1150934.448	-5.651E-05	1.053E-03
8708.400	2.893	3487.509	-1150931.396	-5.590E-05	1.032E-03
8709.400	2.854	3487.497	-1150928.345	-5.590E-05	1.243E-03
8710.400	2.854	3487.487	-1150925.415	-5.286E-05	1.141E-03
8711.400	2.937	3487.477	-1150922.485	-5.165E-05	1.157E-03
8712.400	2.869	3487.493	-1150919.556	-6.319E-05	1.065E-03
8713.400	2.951	3487.462	-1150916.870	-3.646E-05	1.161E-03
8714.400	2.859	3487.407	-1150913.940	-5.529E-05	9.685E-04
8715.400	2.873	3487.369	-1150910.889	-6.744E-05	1.110E-03
8716.400	2.694	3487.431	-1150908.203	-6.805E-05	1.089E-03
8717.400	2.757	3487.409	-1150905.273	-4.132E-05	1.075E-03
8718.400	2.645	3487.399	-1150902.466	-5.225E-05	1.114E-03
8719.400	2.796	3487.389	-1150899.536	-5.590E-05	1.154E-03
8720.400	2.805	3487.333	-1150896.606	-6.015E-05	1.188E-03
8721.400	2.873	3487.376	-1150893.555	-6.258E-05	9.831E-04
8722.400	2.694	3487.354	-1150890.625	-4.739E-05	1.023E-03
8723.400	2.839	3487.376	-1150887.695	-6.441E-05	1.150E-03
8724.400	2.961	3487.320	-1150884.766	-6.197E-05	1.044E-03
8725.400	2.864	3487.297	-1150881.836	-6.562E-05	1.035E-03
8726.400	2.762	3487.335	-1150878.906	-6.319E-05	9.387E-04
8727.400	2.747	3487.351	-1150875.854	-6.076E-05	1.165E-03
8728.400	2.718	3487.309	-1150873.291	-5.651E-05	1.108E-03
8729.400	2.844	3487.327	-1150870.605	-6.197E-05	1.100E-03
8730.400	2.757	3487.287	-1150867.676	-4.800E-05	1.057E-03
8731.400	2.898	3487.279	-1150864.624	-6.319E-05	1.174E-03
8732.400	2.781	3487.289	-1150861.572	-6.076E-05	1.161E-03
8733.400	2.800	3487.295	-1150858.521	-5.286E-05	1.109E-03
8734.400	2.859	3487.256	-1150855.591	-6.137E-05	1.123E-03
8735.400	2.766	3487.253	-1150852.661	-7.838E-05	1.167E-03
8736.400	2.985	3487.267	-1150849.854	-4.739E-05	1.024E-03
8737.400	2.941	3487.231	-1150846.802	-6.380E-05	1.134E-03
8738.400	2.810	3487.228	-1150843.872	-6.380E-05	1.095E-03
8739.200	2.854	3487.215	-1150841.675	-7.413E-05	1.092E-03
8739.400	-1246.123	3394.590	-1151090.942	-6.987E-05	1.106E-03
8739.600	-1246.498	3392.577	-1151340.210	-6.501E-05	1.058E-03
8739.800	-1246.780	3391.522	-1151589.600	-5.468E-05	1.100E-03
8740.200	-1246.697	3389.979	-1152088.379	-4.922E-05	1.071E-03
8740.600	-1246.918	3388.758	-1152587.158	-6.501E-05	1.122E-03
8741.000	-1247.015	3387.711	-1153085.938	-5.286E-05	1.082E-03
8741.400	-1246.957	3386.701	-1153584.717	-6.197E-05	1.049E-03
8742.000	-1246.872	3385.494	-1154332.886	-5.833E-05	1.066E-03
8742.600	-1246.787	3384.309	-1155081.055	-4.861E-05	1.023E-03
8743.200	-1246.957	3383.254	-1155829.224	-5.651E-05	1.038E-03
8743.800	-1246.862	3382.218	-1156577.393	-5.165E-05	1.071E-03
8744.600	-1246.797	3380.934	-1157574.951	-6.258E-05	1.113E-03
8745.400	-1246.947	3379.761	-1158572.510	-6.076E-05	1.058E-03
8746.200	-1246.935	3378.690	-1159570.068	-6.684E-05	1.158E-03
8747.000	-1247.008	3377.688	-1160567.627	-5.529E-05	1.135E-03
8748.000	-1246.998	3376.456	-1161814.575	-4.861E-05	1.182E-03
8749.000	-1247.020	3375.247	-1163061.523	-6.380E-05	1.224E-03
8750.000	-1247.059	3374.229	-1164308.594	-5.529E-05	1.086E-03
8751.000	-1247.088	3373.164	-1165555.542	-6.319E-05	1.032E-03
8752.000	-1247.040	3372.228	-1166802.490	-6.137E-05	1.050E-03
8753.000	-1247.018	3371.277	-1168049.438	-4.314E-05	1.100E-03
8754.000	-1247.071	3370.401	-1169296.387	-5.711E-05	1.106E-03
8755.000	-1247.166	3369.538	-1170543.335	-7.473E-05	1.026E-03
8756.000	-1247.135	3368.713	-1171790.283	-8.324E-05	1.034E-03
8757.000	-1247.023	3367.936	-1173037.231	-5.043E-05	1.120E-03
8758.000	-1247.037	3367.237	-1174284.180	-6.562E-05	1.082E-03
8759.000	-1246.935	3366.522	-1175531.128	-5.772E-05	1.061E-03
8760.000	-1247.062	3365.818	-1176778.076	-6.137E-05	1.077E-03
8760.800	-1247.003	3365.261	-1177775.635	-6.197E-05	1.054E-03
8761.000	1.916	3459.904	-1177775.269	-6.380E-05	1.097E-03
8761.200	2.392	3462.044	-1177774.780	-6.076E-05	1.063E-03
8761.400	2.596	3463.092	-1177774.292	-7.170E-05	1.136E-03
8761.800	2.762	3464.378	-1177773.193	-4.739E-05	1.069E-03
8762.400	2.747	3465.721	-1177771.484	-7.230E-05	1.065E-03
8763.200	2.844	3466.943	-1177769.287	-6.015E-05	1.176E-03
8764.000	2.640	3467.995	-1177767.212	-7.656E-05	1.091E-03
8765.000	2.796	3468.979	-1177764.404	-6.380E-05	1.093E-03
8766.000	2.771	3469.895	-1177761.719	-5.894E-05	1.080E-03
8767.000	2.810	3470.646	-1177759.033	-4.739E-05	1.123E-03
8768.000	2.747	3471.251	-1177756.348	-5.225E-05	1.072E-03
8769.000	2.679	3471.896	-1177753.906	-5.954E-05	1.032E-03
8770.000	2.937	3472.372	-1177751.221	-4.618E-05	1.143E-03
8771.000	2.723	3472.859	-1177748.291	-5.286E-05	1.132E-03
8772.000	2.718	3473.294	-1177745.728	-5.347E-05	1.066E-03
8773.000	2.849	3473.679	-1177742.676	-5.590E-05	1.032E-03
8774.000	2.703	3474.047	-1177739.990	-6.684E-05	1.086E-03
8775.000	2.703	3474.358	-1177737.305	-5.286E-05	1.145E-03
8776.000	2.805	3474.677	-1177734.619	-5.286E-05	1.132E-03
8777.000	2.815	3474.935	-1177731.812	-6.137E-05	1.093E-03
8778.000	2.703	3475.211	-1177729.126	-7.048E-05	1.165E-03
8779.000	2.650	3475.444	-1177726.196	-5.833E-05	1.100E-03
8780.000	2.815	3475.665	-1177723.389	-5.104E-05	1.141E-03
8781.000	2.854	3475.889	-1177720.459	-5.286E-05	1.073E-03
8782.000	2.893	3476.088	-1177717.529	-6.684E-05	1.039E-03
8783.000	2.956	3476.272	-1177714.600	-4.861E-05	1.138E-03
8784.000	2.800	3476.471	-1177711.548	-6.137E-05	9.782E-04
8785.000	2.796	3476.603	-1177708.496	-5.954E-05	1.075E-03
8786.000	2.835	3476.785	-1177705.688	-7.656E-05	1.202E-03
8787.000	2.674	3476.944	-1177703.003	-6.137E-05	1.066E-03
8788.000	2.835	3477.061	-1177700.073	-5.529E-05	9.472E-04
8789.000	2.732	3477.167	-1177697.266	-5.954E-05	1.040E-03
8790.000	2.771	3477.319	-1177694.336	-5.590E-05	1.128E-03
8791.000	2.664	3477.436	-1177691.528	-5.772E-05	1.170E-03
8792.000	2.839	3477.561	-1177688.721	-7.230E-05	1.063E-03
8793.000	2.732	3477.639	-1177686.035	-4.557E-05	1.072E-03
8794.000	3.010	3477.762	-1177683.228	-7.838E-05	1.095E-03
8795.000	2.907	3477.837	-1177680.176	-5.104E-05	1.031E-03
8796.000	2.859	3477.961	-1177677.124	-6.137E-05	1.113E-03
8797.000	2.980	3478.003	-1177674.072	-5.225E-05	1.097E-03
8798.000	2.951	3478.092	-1177671.143	-6.015E-05	1.075E-03
8799.000	2.766	3478.221	-1177668.091	-8.020E-05	1.156E-03
8800.000	2.893	3478.236	-1177665.039	-5.286E-05	1.130E-03
8801.000	2.625	3478.378	-1177662.476	-6.319E-05	1.153E-03
8802.000	2.781	3478.382	-1177659.424	-6.562E-05	1.158E-03
8803.000	2.771	3478.520	-1177656.616	-5.347E-05	1.026E-03
8804.000	2.791	3478.539	-1177653.564	-6.076E-05	1.079E-03
8805.000	2.961	3478.598	-1177650.513	-6.744E-05	1.210E-03
8806.000	2.854	3478.642	-1177647.461	-5.347E-05	1.065E-03
8807.000	3.048	3478.745	-1177644.409	-6.744E-05	1.053E-03
8808.000	2.713	3478.775	-1177641.479	-5.286E-05	1.109E-03
8809.000	2.752	3478.807	-1177638.428	-6.319E-05	1.133E-03
8810.000	2.791	3478.888	-1177635.376	-5.590E-05	9.849E-04
8811.000	3.044	3478.953	-1177632.446	-5.043E-05	1.067E-03
8812.000	3.010	3478.969	-1177629.395	-6.380E-05	1.133E-03
8813.000	2.985	3479.040	-1177626.587	-4.557E-05	1.148E-03
8814.000	2.927	3479.085	-1177623.535	-8.020E-05	1.070E-03
8815.000	2.771	3479.076	-1177620.728	-6.319E-05	1.004E-03
8816.000	2.878	3479.140	-1177617.676	-7.170E-05	1.000E-03
8817.000	2.664	3479.176	-1177614.746	-5.590E-05	1.044E-03
8818.000	2.927	3479.231	-1177611.694	-6.076E-05	1.205E-03
8819.000	2.825	3479.249	-1177609.009	-4.739E-05	1.110E-03
8820.000	2.898	3479.314	-1177606.201	-6.744E-05	1.113E-03
8821.000	2.752	3479.323	-1177603.394	-6.137E-05	1.236E-03
8822.000	2.839	3479.347	-1177600.586	-5.165E-05	1.065E-03
8823.000	2.849	3479.386	-1177597.778	-6.258E-05	1.181E-03
8824.000	2.830	3479.436	-1177594.849	-3.949E-05	1.045E-03
8825.000	2.878	3479.479	-1177591.919	-6.380E-05	1.157E-03
8826.000	2.776	3479.481	-1177588.989	-4.253E-05	1.130E-03
8827.000	2.800	3479.546	-1177586.060	-5.468E-05	1.226E-03
8828.000	2.786	3479.527	-1177583.252	-5.711E-05	9.460E-04
8829.000	2.674	3479.573	-1177580.566	-6.137E-05	1.155E-03
8830.000	2.601	3479.563	-1177578.003	-6.380E-05	1.137E-03
8831.000	2.766	3479.592	-1177575.317	-6.866E-05	1.041E-03
8832.000	2.728	3479.649	-1177572.876	-5.225E-05	1.126E-03
8833.000	2.766	3479.645	-1177570.190	-6.805E-05	1.238E-03
8834.000	2.728	3479.651	-1177567.627	-5.651E-05	1.083E-03
8835.000	2.669	3479.694	-1177564.941	-6.684E-05	9.570E-04
8836.000	2.616	3479.745	-1177562.134	-5.954E-05	1.071E-03
8837.000	2.713	3479.765	-1177559.692	-5.954E-05	1.036E-03
8838.000	2.888	3479.782	-1177556.763	-6.623E-05	9.679E-04
8839.000	2.917	3479.795	-1177553.711	-5.043E-05	1.077E-03
8840.000	2.674	3479.805	-1177551.025	-6.380E-05	1.029E-03
8841.000	2.917	3479.786	-1177547.974	-7.109E-05	1.052E-03
8842.000	2.791	3479.856	-1177544.922	-7.109E-05	1.018E-03
8843.000	2.844	3479.861	-1177541.992	-2.916E-05	9.867E-04
8844.000	2.805	3479.878	-1177539.063	-7.170E-05	1.008E-03
8845.000	2.796	3479.873	-1177536.133	-6.623E-05	1.063E-03
8846.000	2.747	3479.895	-1177533.325	-6.258E-05	9.983E-04
8847.000	2.796	3479.921	-1177530.640	-7.291E-05	1.095E-03
8848.000	2.684	3479.954	-1177527.954	-7.170E-05	1.085E-03
8849.000	2.835	3479.977	-1177525.391	-6.137E-05	1.072E-03
8850.000	2.650	3480.006	-1177522.583	-6.501E-05	1.044E-03
8851.000	2.791	3480.015	-1177519.775	-6.015E-05	1.052E-03
8852.000	2.708	3480.044	-1177517.090	-4.861E-05	1.068E-03
8853.000	2.781	3480.041	-1177514.160	-5.408E-05	9.898E-04
8854.000	2.800	3480.088	-1177511.353	-5.529E-05	1.201E-03
8855.000	2.757	3480.065	-1177508.301	-7.413E-05	1.092E-03
8856.000	2.757	3480.072	-1177505.493	-5.286E-05	1.063E-03
8857.000	2.577	3480.123	-1177503.052	-5.833E-05	1.198E-03
8858.000	2.805	3480.117	-1177500.366	-6.380E-05	1.157E-03
8859.000	2.499	3480.124	-1177497.559	-6.805E-05	1.086E-03
8860.000	2.664	3480.152	-1177494.751	-4.800E-05	1.116E-03
8861.000	2.796	3480.179	-1177492.065	-6.927E-05	1.067E-03
8862.000	2.762	3480.116	-1177489.380	-6.015E-05	1.149E-03
8863.000	2.800	3480.170	-1177486.572	-6.076E-05	1.070E-03
8864.000	2.553	3480.206	-1177484.009	-5.408E-05	1.205E-03
8865.000	2.766	3480.174	-1177481.201	-6.076E-05	1.157E-03
8866.000	2.621	3480.214	-1177478.638	-4.496E-05	1.070E-03
8867.000	2.713	3480.214	-1177476.074	-6.319E-05	1.046E-03
8868.000	2.762	3480.237	-1177473.267	-5.590E-05	1.117E-03
8869.000	2.703	3480.232	-1177470.337	-7.291E-05	1.058E-03
8870.000	2.694	3480.275	-1177467.773	-7.230E-05	1.018E-03
8871.000	2.679	3480.264	-1177465.088	-6.076E-05	1.099E-03
8872.000	2.640	3480.213	-1177462.280	-5.711E-05	9.837E-04
8873.000	2.659	3480.306	-1177459.595	-5.954E-05	1.085E-03
8874.000	2.591	3480.301	-1177457.153	-6.076E-05	1.053E-03
8875.000	2.810	3480.305	-1177454.468	-4.922E-05	1.182E-03
8876.000	2.752	3480.307	-1177451.660	-6.441E-05	1.216E-03
8877.000	2.703	3480.304	-1177448.853	-5.711E-05	1.120E-03
8878.000	2.655	3480.261	-1177446.045	-6.441E-05	1.081E-03
8879.000	2.694	3480.314	-1177443.481	-6.137E-05	1.096E-03
8880.000	2.713	3480.332	-1177440.796	-5.165E-05	1.083E-03
8880.800	2.883	3480.351	-1177438.599	-4.618E-05	1.014E-03
8881.000	2499.603	3663.654	-1176938.721	-5.590E-05	1.059E-03
8881.200	2501.183	3666.523	-1176438.477	-5.954E-05	1.069E-03
8881.400	2501.562	3668.148	-1175938.110	-6.319E-05	1.056E-03
8881.600	2501.630	3669.344	-1175437.744	-7.838E-05	1.139E-03
8881.800	2501.946	3670.469	-1174937.378	-8.142E-05	1.029E-03
8882.200	2501.927	3672.269	-1173936.646	-6.866E-05	1.168E-03
8882.600	2501.961	3673.829	-1172935.913	-8.263E-05	1.071E-03
8883.000	2502.082	3675.254	-1171935.181	-6.684E-05	1.120E-03
8883.400	2502.141	3676.576	-1170934.204	-6.319E-05	9.691E-04
8883.800	2502.092	3677.770	-1169933.472	-3.889E-05	1.048E-03
8884.200	2502.170	3678.912	-1168932.617	-5.468E-05	9.782E-04
8884.600	2502.253	3680.001	-1167931.641	-6.258E-05	1.190E-03
8885.000	2502.272	3681.035	-1166930.664	-7.595E-05	1.089E-03
8885.600	2502.253	3682.482	-1165429.321	-5.954E-05	1.022E-03
8886.200	2502.141	3683.872	-1163927.856	-4.922E-05	9.965E-04
8886.800	2502.233	3685.149	-1162426.392	-6.501E-05	1.182E-03
8887.400	2502.082	3686.352	-1160925.171	-6.866E-05	9.965E-04
8888.000	2502.170	3687.519	-1159423.828	-5.590E-05	1.173E-03
8888.600	2502.320	3688.545	-1157922.485	-7.170E-05	1.006E-03
8889.200	2502.136	3689.642	-1156421.143	-6.258E-05	1.107E-03
8889.800	2502.102	3690.654	-1154919.800	-4.861E-05	1.173E-03
8890.600	2502.296	3691.897	-1152917.847	-6.137E-05	1.237E-03
8891.400	2502.369	3693.105	-1150916.016	-5.954E-05	1.035E-03
8891.600	2502.213	3693.402	-1150415.527	-7.170E-05	1.077E-03
8891.800	4.940	3514.350	-1150414.551	-6.137E-05	1.099E-03
8892.000	3.598	3511.878	-1150413.818	-5.954E-05	1.088E-03
8892.200	3.364	3510.585	-1150413.086	-6.137E-05	1.064E-03
8892.400	2.995	3509.578	-1150412.476	-6.319E-05	1.081E-03
8892.800	3.116	3508.086	-1150411.255	-5.651E-05	1.189E-03
8893.200	2.781	3506.865	-1150410.034	-6.441E-05	1.119E-03
8893.800	2.820	3505.410	-1150408.203	-6.380E-05	1.125E-03
8894.400	2.927	3504.249	-1150406.372	-6.137E-05	1.153E-03
8895.000	2.912	3503.192	-1150404.663	-5.468E-05	1.065E-03
8895.800	2.747	3502.071	-1150402.466	-7.534E-05	1.139E-03
8896.800	2.679	3500.839	-1150399.902	-6.015E-05	1.004E-03
8897.800	2.664	3499.762	-1150397.217	-6.441E-05	1.100E-03
8898.800	2.659	3498.880	-1150394.653	-6.380E-05	1.114E-03
8899.800	2.796	3498.109	-1150391.968	-7.170E-05	1.032E-03
8900.800	2.718	3497.391	-1150389.404	-7.291E-05	1.102E-03
8901.800	2.854	3496.745	-1150386.841	-7.716E-05	1.030E-03
8902.800	2.839	3496.151	-1150383.911	-6.197E-05	9.916E-04
8903.800	2.684	3495.670	-1150381.470	-6.319E-05	1.043E-03
8904.800	2.737	3495.196	-1150378.662	-5.833E-05	1.134E-03
8905.800	2.771	3494.729	-1150375.977	-7.534E-05	1.064E-03
8906.800	2.747	3494.346	-1150373.169	-7.109E-05	1.128E-03
8907.800	2.839	3493.956	-1150370.483	-6.015E-05	1.060E-03
8908.800	2.762	3493.669	-1150367.554	-6.501E-05	1.040E-03
8909.800	2.951	3493.339	-1150364.624	-5.104E-05	1.120E-03
8910.800	2.776	3493.033	-1150361.816	-6.258E-05	9.782E-04
8911.800	2.776	3492.722	-1150359.009	-6.441E-05	1.012E-03
8912.800	2.864	3492.470	-1150356.079	-7.170E-05	1.167E-03
8913.800	2.917	3492.278	-1150353.149	-7.291E-05	1.124E-03
8914.800	3.073	3492.045	-1150350.342	-5.104E-05	1.234E-03
8915.800	2.718	3491.803	-1150347.534	-4.739E-05	1.092E-03
8916.800	2.679	3491.638	-1150344.727	-6.744E-05	1.090E-03
8917.800	2.810	3491.484	-1150341.797	-7.291E-05	1.057E-03
8918.800	2.830	3491.274	-1150338.867	-5.529E-05	1.051E-03
8919.800	2.898	3491.090	-1150335.938	-4.800E-05	1.163E-03
8920.800	2.781	3490.981	-1150332.886	-6.258E-05	1.084E-03
8921.800	2.835	3490.782	-1150329.956	-6.987E-05	1.052E-03
8922.800	2.937	3490.655	-1150326.904	-5.772E-05	9.600E-04
8923.800	2.800	3490.582	-1150323.853	-6.076E-05	1.133E-03
8924.800	2.766	3490.424	-1150320.801	-7.048E-05	1.095E-03
8925.800	2.762	3490.343	-1150317.749	-4.922E-05	1.004E-03
8926.800	2.859	3490.221	-1150314.819	-7.534E-05	1.068E-03
8927.800	2.791	3490.093	-1150311.768	-6.562E-05	1.123E-03
8928.800	2.966	3490.015	-1150308.838	-8.871E-05	1.063E-03
8929.800	2.859	3489.918	-1150305.786	-6.684E-05	1.057E-03
8930.800	2.903	3489.815	-1150302.734	-6.015E-05	1.054E-03
8931.800	2.980	3489.741	-1150299.683	-5.590E-05	1.029E-03
8932.800	2.864	3489.643	-1150296.631	-6.441E-05	1.111E-03
8933.800	2.844	3489.538	-1150293.701	-5.165E-05	1.051E-03
8934.800	2.810	3489.456	-1150290.771	-7.899E-05	1.071E-03
8935.800	2.757	3489.406	-1150287.964	-7.534E-05	1.103E-03
8936.800	2.830	3489.361	-1150284.912	-6.380E-05	1.091E-03
8937.800	2.946	3489.292	-1150281.860	-7.534E-05	1.029E-03
8938.800	2.956	3489.202	-1150278.809	-6.684E-05	9.381E-04
8939.800	2.883	3489.163	-1150275.879	-6.258E-05	1.105E-03
8940.800	2.786	3489.118	-1150272.949	-7.838E-05	1.082E-03
8941.800	2.815	3489.060	-1150270.020	-7.838E-05	1.102E-03
8942.800	2.859	3489.010	-1150266.968	-5.651E-05	1.162E-03
8943.800	2.835	3488.980	-1150263.916	-6.501E-05	1.085E-03
8944.800	2.844	3488.868	-1150261.108	-5.347E-05	1.112E-03
8945.800	2.961	3488.877	-1150258.057	-5.833E-05	1.193E-03
8946.800	2.781	3488.795	-1150255.249	-4.314E-05	1.023E-03
8947.800	2.869	3488.790	-1150252.319	-6.319E-05	1.150E-03
8948.800	2.737	3488.730	-1150249.512	-5.468E-05	1.187E-03
8949.800	2.752	3488.704	-1150246.704	-5.347E-05	1.105E-03
8950.800	2.698	3488.672	-1150244.019	-7.109E-05	1.117E-03
8951.800	2.664	3488.617	-1150241.333	-8.628E-05	1.087E-03
8952.800	2.849	3488.610	-1150238.403	-7.534E-05	1.188E-03
8953.800	2.859	3488.547	-1150235.474	-7.716E-05	1.049E-03
8954.800	2.757	3488.530	-1150232.666	-6.441E-05	1.006E-03
8955.800	2.766	3488.477	-1150229.614	-5.165E-05	1.029E-03
8956.800	2.800	3488.456	-1150226.685	-6.501E-05	1.081E-03
8957.800	2.732	3488.420	-1150223.755	-6.805E-05	9.430E-04
8958.800	2.650	3488.391	-1150221.191	-6.197E-05	1.089E-03
8959.800	2.742	3488.385	-1150218.384	-7.473E-05	1.151E-03
8960.800	2.640	3488.318	-1150215.942	-6.684E-05	1.049E-03
8961.800	2.752	3488.329	-1150213.135	-5.529E-05	1.185E-03
8962.800	2.839	3488.288	-1150210.205	-6.805E-05	1.132E-03
8963.800	2.776	3488.279	-1150207.275	-9.661E-05	1.061E-03
8964.800	2.635	3488.216	-1150204.468	-6.441E-05	1.071E-03
8965.800	2.815	3488.218	-1150201.660	-5.772E-05	1.035E-03
8966.800	2.732	3488.201	-1150198.853	-7.170E-05	1.149E-03
8967.800	2.698	3488.120	-1150196.167	-6.441E-05	1.168E-03
8968.800	2.786	3488.117	-1150193.481	-5.225E-05	1.108E-03
8969.800	2.800	3488.146	-1150190.552	-5.408E-05	1.183E-03
8970.800	2.694	3488.088	-1150187.744	-5.833E-05	1.105E-03
8971.800	2.694	3488.032	-1150185.059	-7.230E-05	1.123E-03
8972.800	2.815	3488.115	-1150182.007	-6.623E-05	1.168E-03
8973.800	2.932	3488.063	-1150179.077	-7.413E-05	1.098E-03
8974.800	2.922	3488.045	-1150176.025	-7.960E-05	1.158E-03
8975.800	2.655	3488.040	-1150173.218	-9.053E-05	1.132E-03
8976.800	2.844	3487.999	-1150170.654	-5.772E-05	1.069E-03
8977.800	2.737	3487.989	-1150167.847	-7.170E-05	1.083E-03
8978.800	2.927	3487.970	-1150165.283	-6.744E-05	1.117E-03
8979.800	2.791	3487.942	-1150162.354	-4.739E-05	1.112E-03
8980.800	2.757	3487.912	-1150159.668	-5.286E-05	1.027E-03
8981.800	2.757	3487.941	-1150156.982	-5.590E-05	9.229E-04
8982.800	2.888	3487.925	-1150154.297	-7.170E-05	1.072E-03
8983.800	2.708	3487.907	-1150151.733	-7.291E-05	1.053E-03
8984.800	2.776	3487.916	-1150149.170	-6.501E-05	1.054E-03
8985.800	2.669	3487.869	-1150146.484	-6.258E-05	1.109E-03
8986.800	2.791	3487.875	-1150143.677	-6.501E-05	1.065E-03
8987.800	2.679	3487.849	-1150141.113	-7.170E-05	9.138E-04
8988.800	2.587	3487.849	-1150138.672	-6.562E-05	1.117E-03
8989.800	2.732	3487.838	-1150136.230	-6.441E-05	1.131E-03
8990.800	2.830	3487.793	-1150133.545	-8.871E-05	1.184E-03
8991.800	2.849	3487.818	-1150130.737	-6.380E-05	1.040E-03
8992.800	2.713	3487.812	-1150128.052	-8.081E-05	1.181E-03
8993.800	2.752	3487.791	-1150125.122	-5.043E-05	1.077E-03
8994.800	2.708	3487.792	-1150122.681	-6.380E-05	1.138E-03
8995.800	2.771	3487.776	-1150119.995	-8.628E-05	1.081E-03
8996.800	2.747	3487.757	-1150117.065	-8.081E-05	1.065E-03
8997.800	2.708	3487.770	-1150114.380	-6.380E-05	1.155E-03
8998.800	2.757	3487.763	-1150111.694	-6.319E-05	1.092E-03
8999.800	2.800	3487.733	-1150108.887	-4.557E-05	1.030E-03
9000.800	2.839	3487.681	-1150106.079	-6.015E-05	1.069E-03
9001.800	2.898	3487.722	-1150103.271	-6.015E-05	1.212E-03
9002.800	2.674	3487.736	-1150100.464	-6.015E-05	1.052E-03
9003.800	2.737	3487.691	-1150097.778	-6.258E-05	1.099E-03
9004.800	2.689	3487.712	-1150095.215	-6.684E-05	1.013E-03
9005.800	2.766	3487.708	-1150092.285	-7.352E-05	1.092E-03
9006.800	2.854	3487.680	-1150089.233	-5.590E-05	1.052E-03
9007.800	2.815	3487.669	-1150086.426	-7.048E-05	1.082E-03
9008.800	2.776	3487.653	-1150083.496	-6.501E-05	1.021E-03
9009.800	2.815	3487.640	-1150080.444	-4.739E-05	1.164E-03
9010.800	2.849	3487.676	-1150077.515	-6.197E-05	9.582E-04
9011.600	2.810	3487.630	-1150075.073	-7.716E-05	1.084E-03
9011.800	-2494.362	3302.693	-1150573.975	-4.071E-05	1.069E-03
9012.000	-2495.835	3298.354	-1151073.120	-4.922E-05	1.084E-03
9012.200	-2496.243	3295.895	-1151572.388	-6.805E-05	1.130E-03
9012.400	-2496.221	3294.030	-1152071.655	-5.529E-05	1.163E-03
9012.600	-2496.452	3292.474	-1152570.923	-6.197E-05	1.113E-03
9012.800	-2496.498	3290.953	-1153070.190	-5.165E-05	1.054E-03
9013.000	-2496.664	3289.713	-1153569.580	-5.225E-05	1.045E-03
9013.200	-2496.722	3288.470	-1154068.970	-5.651E-05	1.085E-03
9013.400	-2496.695	3287.371	-1154568.359	-4.435E-05	1.044E-03
9013.600	-2496.739	3286.223	-1155067.749	-5.894E-05	1.023E-03
9014.000	-2496.829	3284.248	-1156066.528	-5.711E-05	1.023E-03
9014.400	-2496.771	3282.368	-1157065.186	-6.380E-05	1.102E-03
9014.800	-2496.707	3280.611	-1158063.965	-4.861E-05	1.011E-03
9015.200	-2496.751	3278.932	-1159062.744	-6.623E-05	1.189E-03
9015.600	-2497.067	3277.349	-1160061.523	-5.651E-05	1.109E-03
9016.000	-2496.861	3275.775	-1161060.303	-6.319E-05	1.134E-03
9016.400	-2496.933	3274.357	-1162059.082	-4.922E-05	1.087E-03
9016.800	-2496.895	3272.932	-1163057.861	-5.772E-05	1.058E-03
9017.200	-2496.904	3271.583	-1164056.641	-6.805E-05	1.174E-03
9017.600	-2496.853	3270.299	-1165055.420	-7.473E-05	1.030E-03
9018.000	-2496.900	3269.037	-1166054.199	-6.927E-05	1.100E-03
9018.400	-2496.970	3267.797	-1167052.979	-5.651E-05	1.096E-03
9018.800	-2496.975	3266.625	-1168051.758	-5.104E-05	1.046E-03
9019.200	-2496.829	3265.469	-1169050.537	-4.922E-05	1.044E-03
9019.600	-2496.865	3264.287	-1170049.316	-6.744E-05	1.122E-03
9020.000	-2496.870	3263.246	-1171048.096	-8.203E-05	1.197E-03
9020.400	-2496.892	3262.169	-1172046.875	-6.137E-05	1.045E-03
9020.800	-2496.758	3261.126	-1173045.654	-5.468E-05	1.051E-03
9021.200	-2496.848	3260.118	-1174044.434	-6.501E-05	1.006E-03
9021.600	-2496.917	3259.113	-1175043.213	-6.076E-05	1.026E-03
9022.200	-2497.024	3257.688	-1176541.382	-6.258E-05	9.782E-04
9022.400	-2496.848	3257.218	-1177040.771	-6.501E-05	1.167E-03
9022.600	1.031	3448.332	-1177040.527	-7.291E-05	1.114E-03
9022.800	2.071	3453.202	-1177040.161	-5.954E-05	1.031E-03
9023.000	2.212	3455.318	-1177039.673	-6.380E-05	1.075E-03
9023.200	2.543	3456.648	-1177039.185	-5.711E-05	1.029E-03
9023.400	2.533	3457.747	-1177038.696	-6.441E-05	1.085E-03
9023.800	2.528	3459.451	-1177037.720	-6.684E-05	9.813E-04
9024.200	2.650	3460.707	-1177036.743	-4.132E-05	1.140E-03
9024.600	2.723	3461.823	-1177035.767	-6.744E-05	1.058E-03
9025.200	2.757	3463.162	-1177034.180	-6.380E-05	1.113E-03
9025.800	2.869	3464.307	-1177032.471	-5.225E-05	1.066E-03
9026.400	2.640	3465.326	-1177031.006	-6.380E-05	9.533E-04
9027.200	2.694	3466.436	-1177028.809	-4.739E-05	1.147E-03
9028.200	2.742	3467.567	-1177025.879	-6.319E-05	1.082E-03
9029.200	2.810	3468.676	-1177022.949	-6.927E-05	9.758E-04
9030.200	2.839	3469.574	-1177020.142	-4.496E-05	1.100E-03
9031.200	2.912	3470.324	-1177017.090	-7.048E-05	1.093E-03
9032.200	2.757	3471.042	-1177014.404	-5.772E-05	1.143E-03
9033.200	2.752	3471.647	-1177011.353	-6.684E-05	1.103E-03
9034.200	2.684	3472.224	-1177008.423	-5.894E-05	1.161E-03
9035.200	2.737	3472.729	-1177005.737	-7.534E-05	9.910E-04
9036.200	2.762	3473.166	-1177003.052	-7.473E-05	1.067E-03
9037.200	2.966	3473.589	-1177000.122	-6.015E-05	1.100E-03
9038.200	2.878	3473.981	-1176997.070	-5.772E-05	1.111E-03
9039.200	2.752	3474.375	-1176994.019	-5.894E-05	1.057E-03
9040.200	2.912	3474.634	-1176991.089	-5.347E-05	1.105E-03
9041.200	2.869	3474.934	-1176988.037	-5.043E-05	1.032E-03
9042.200	2.903	3475.249	-1176984.985	-6.805E-05	1.084E-03
9043.200	2.976	3475.549	-1176981.934	-5.165E-05	1.072E-03
9044.200	2.844	3475.804	-1176979.126	-6.197E-05	1.094E-03
9045.200	2.825	3476.014	-1176976.196	-5.347E-05	1.163E-03
9046.200	2.732	3476.229	-1176973.389	-6.258E-05	1.210E-03
9047.200	2.815	3476.433	-1176970.337	-7.473E-05	1.254E-03
9048.200	2.650	3476.615	-1176967.773	-6.805E-05	1.131E-03
9049.200	2.757	3476.789	-1176965.088	-5.833E-05	1.132E-03
9050.200	2.922	3476.992	-1176962.158	-4.010E-05	1.086E-03
9051.200	2.771	3477.140	-1176959.229	-6.441E-05	1.016E-03
9052.200	2.723	3477.318	-1176956.421	-5.651E-05	1.128E-03
9053.200	2.971	3477.469	-1176953.369	-4.739E-05	1.012E-03
9054.200	2.839	3477.562	-1176950.317	-6.927E-05	1.024E-03
9055.200	3.044	3477.674	-1176947.266	-4.982E-05	1.073E-03
9056.200	2.825	3477.821	-1176944.214	-5.347E-05	1.067E-03
9057.200	2.932	3477.950	-1176941.162	-6.623E-05	1.084E-03
9058.200	2.762	3478.076	-1176938.110	-5.468E-05	1.076E-03
9059.200	2.718	3478.181	-1176935.303	-6.319E-05	1.060E-03
9060.200	2.630	3478.250	-1176932.739	-5.772E-05	1.031E-03
9061.200	2.757	3478.329	-1176930.176	-5.833E-05	1.099E-03
9062.200	2.893	3478.440	-1176927.246	-5.894E-05	1.094E-03
9063.200	2.835	3478.487	-1176924.316	-3.281E-05	1.007E-03
9064.200	2.859	3478.607	-1176921.387	-5.347E-05	1.078E-03
9065.200	2.786	3478.702	-1176918.335	-6.927E-05	1.053E-03
9066.200	3.058	3478.775	-1176915.283	-5.468E-05	1.049E-03
9067.200	2.888	3478.799	-1176912.598	-6.258E-05	1.130E-03
9068.200	2.723	3478.846	-1176909.790	-4.557E-05	1.073E-03
9069.200	2.859	3478.986	-1176906.982	-3.281E-05	1.068E-03
9070.200	2.786	3479.049	-1176903.931	-5.651E-05	1.063E-03
9071.200	2.786	3479.105	-1176901.123	-6.562E-05	1.173E-03
9072.200	2.869	3479.164	-1176898.315	-5.833E-05	1.119E-03
9073.200	2.820	3479.205	-1176895.264	-6.258E-05	1.182E-03
9074.200	2.791	3479.261	-1176892.212	-6.562E-05	1.119E-03
9075.200	2.786	3479.325	-1176889.282	-5.286E-05	1.106E-03
9076.200	2.737	3479.334	-1176886.353	-5.833E-05	1.153E-03
9077.200	2.737	3479.415	-1176883.667	-6.623E-05	1.068E-03
9078.200	2.781	3479.463	-1176880.615	-5.529E-05	1.182E-03
9079.200	2.912	3479.485	-1176877.563	-5.590E-05	1.128E-03
9080.200	2.805	3479.538	-1176874.512	-6.015E-05	1.085E-03
9081.200	2.941	3479.593	-1176871.460	-5.043E-05	9.971E-04
9082.200	2.888	3479.610	-1176868.408	-7.534E-05	1.008E-03
9083.200	2.854	3479.676	-1176865.479	-6.258E-05	1.093E-03
9084.200	2.859	3479.642	-1176862.671	-6.987E-05	1.069E-03
9085.200	2.917	3479.686	-1176859.741	-5.833E-05	1.120E-03
9086.200	2.859	3479.791	-1176856.689	-5.833E-05	9.636E-04
9087.200	2.995	3479.769	-1176853.760	-6.137E-05	1.027E-03
9088.200	2.873	3479.841	-1176850.708	-4.618E-05	1.097E-03
9089.200	2.815	3479.836	-1176847.656	-5.711E-05	1.203E-03
9090.200	2.903	3479.919	-1176844.604	-5.104E-05	1.035E-03
9091.200	2.718	3479.894	-1176841.797	-5.711E-05	1.044E-03
9092.200	2.635	3479.937	-1176838.989	-5.225E-05	1.138E-03
9093.200	2.694	3479.942	-1176836.304	-6.805E-05	1.044E-03
9094.200	2.728	3479.997	-1176833.374	-6.137E-05	1.109E-03
9095.200	3.029	3480.031	-1176830.322	-5.711E-05	1.136E-03
9096.200	3.058	3480.081	-1176827.393	-4.800E-05	1.164E-03
9097.200	2.907	3480.075	-1176824.341	-5.408E-05	1.226E-03
9098.200	2.903	3480.130	-1176821.289	-6.501E-05	1.078E-03
9099.200	2.737	3480.128	-1176818.359	-7.230E-05	1.046E-03
9100.200	2.713	3480.156	-1176815.552	-5.711E-05	1.156E-03
9101.200	2.932	3480.201	-1176812.500	-5.711E-05	1.177E-03
9102.200	2.951	3480.228	-1176809.692	-6.501E-05	1.090E-03
9103.200	2.869	3480.214	-1176806.763	-4.010E-05	1.165E-03
9104.200	2.883	3480.233	-1176803.711	-7.170E-05	1.106E-03
9105.200	2.791	3480.240	-1176800.781	-5.347E-05	1.066E-03
9106.200	2.674	3480.296	-1176797.974	-5.225E-05	1.113E-03
9107.200	2.791	3480.287	-1176795.044	-5.894E-05	1.255E-03
9108.200	2.757	3480.328	-1176792.114	-4.922E-05	1.017E-03
9109.200	2.766	3480.322	-1176789.185	-5.590E-05	1.024E-03
9110.200	2.601	3480.338	-1176786.377	-4.557E-05	9.278E-04
9111.200	2.698	3480.370	-1176783.447	-6.441E-05	1.041E-03
9112.200	2.742	3480.333	-1176780.884	-4.678E-05	1.151E-03
9113.200	2.703	3480.385	-1176777.954	-7.656E-05	1.176E-03
9114.200	2.786	3480.401	-1176775.269	-5.894E-05	1.132E-03
9115.200	2.815	3480.411	-1176772.217	-7.291E-05	9.928E-04
9116.200	2.844	3480.474	-1176769.287	-4.618E-05	1.032E-03
9117.200	2.849	3480.461	-1176766.357	-6.137E-05	1.158E-03
9118.200	2.937	3480.488	-1176763.306	-6.562E-05	1.236E-03
9119.200	2.689	3480.503	-1176760.620	-6.015E-05	1.159E-03
9120.200	2.786	3480.511	-1176757.813	-6.744E-05	1.079E-03
9121.200	2.990	3480.501	-1176754.761	-5.408E-05	1.079E-03
9122.200	2.820	3480.511	-1176751.831	-5.529E-05	1.078E-03
9123.200	2.752	3480.563	-1176748.901	-5.529E-05	1.249E-03
9124.200	2.917	3480.580	-1176745.972	-6.076E-05	1.127E-03
9125.200	2.776	3480.590	-1176743.042	-6.380E-05	1.102E-03
9126.200	2.771	3480.590	-1176740.356	-5.408E-05	1.078E-03
9127.200	2.835	3480.621	-1176737.305	-6.441E-05	1.159E-03
9128.200	2.766	3480.587	-1176734.253	-5.894E-05	1.146E-03
9129.200	2.737	3480.608	-1176731.567	-8.689E-05	1.181E-03
9130.200	2.791	3480.598	-1176728.516	-8.506E-05	1.159E-03
9131.200	2.980	3480.671	-1176725.464	-6.076E-05	1.141E-03
9132.200	2.844	3480.619	-1176722.656	-7.291E-05	1.122E-03
9133.200	2.781	3480.691	-1176719.727	-5.590E-05	1.120E-03
9134.200	2.718	3480.667	-1176716.797	-4.132E-05	1.111E-03
9135.200	2.854	3480.671	-1176713.745	-5.347E-05	9.886E-04
9136.200	2.659	3480.727	-1176711.182	-7.534E-05	9.989E-04
9137.200	2.951	3480.709	-1176708.130	-6.441E-05	1.005E-03
9138.200	2.621	3480.734	-1176705.322	-3.646E-05	1.016E-03
9139.200	2.732	3480.705	-1176702.637	-6.501E-05	9.515E-04
9140.200	2.844	3480.747	-1176699.829	-5.408E-05	1.096E-03
9141.200	2.825	3480.778	-1176696.899	-7.109E-05	1.083E-03
9142.200	2.883	3480.758	-1176693.970	-5.043E-05	1.109E-03
9142.400	2.912	3480.786	-1176693.359	-6.441E-05	1.105E-03
