time /s	I /mA	E /mV	Q /mC	An In 1	An In 2	Rs	Cs	Zab	Phase
0.200	2.976	3688.364	0.595	-7.170E-05	1.097E-03				
0.600	3.141	3689.628	1.812	-7.595E-05	1.083E-03				
1.400	2.951	3690.133	4.208	-7.777E-05	1.087E-03				
2.000	3.034	3690.189	6.038	-7.960E-05	1.178E-03				
2.200	3.160	3690.282	6.670	-8.506E-05	1.083E-03				
2.600	2.898	3690.302	7.865	-8.871E-05	1.049E-03				
3.400	3.034	3690.382	10.274	-8.689E-05	1.178E-03				
4.000	3.019	3690.359	12.070	-8.142E-05	1.075E-03				
4.200	3.223	3690.440	12.715	-8.628E-05	1.205E-03				
4.600	2.995	3690.414	13.934	-8.932E-05	1.064E-03				
5.400	3.014	3690.441	16.400	-9.175E-05	9.618E-04				
6.400	3.151	3690.488	19.493	-8.081E-05	1.133E-03				
7.400	2.922	3690.494	22.518	-6.744E-05	1.136E-03				
8.400	3.044	3690.514	25.553	-7.473E-05	1.029E-03				
9.400	2.995	3690.538	28.532	-8.992E-05	9.873E-04				
10.400	3.034	3690.515	31.541	-8.871E-05	1.076E-03				
11.400	2.976	3690.552	34.452	-6.927E-05	1.007E-03				
12.400	2.839	3690.549	37.351	-7.899E-05	1.099E-03				
13.400	2.893	3690.577	40.309	-8.385E-05	1.015E-03				
14.400	2.932	3690.568	43.229	-7.413E-05	1.009E-03				
15.400	2.849	3690.541	46.180	-8.020E-05	1.069E-03				
16.400	2.961	3690.605	49.045	-8.810E-05	1.161E-03				
17.400	2.859	3690.587	51.974	-7.716E-05	1.042E-03				
18.400	2.849	3690.620	54.936	-8.932E-05	9.916E-04				
19.400	3.014	3690.613	57.893	-7.473E-05	1.054E-03				
20.400	3.010	3690.615	60.886	-8.871E-05	1.082E-03				
21.400	2.946	3690.642	63.857	-7.838E-05	1.157E-03				
22.400	2.922	3690.609	66.788	-1.015E-04	1.040E-03				
23.400	2.990	3690.609	69.788	-7.716E-05	1.123E-03				
24.400	2.752	3690.614	72.723	-9.175E-05	1.105E-03				
25.400	2.907	3690.645	75.595	-1.051E-04	1.097E-03				
26.400	2.873	3690.632	78.467	-5.590E-05	1.095E-03				
27.400	2.927	3690.647	81.400	-6.319E-05	9.630E-04				
28.400	2.830	3690.666	84.344	-9.235E-05	1.179E-03				
29.400	2.951	3690.666	87.301	-9.357E-05	1.071E-03				
30.400	3.044	3690.700	90.231	-8.142E-05	1.166E-03				
31.400	2.917	3690.646	93.209	-8.324E-05	9.406E-04				
32.400	3.034	3690.671	96.172	-9.053E-05	1.047E-03				
33.400	3.044	3690.679	99.171	-8.749E-05	1.097E-03				
34.400	2.937	3690.690	102.152	-7.413E-05	1.069E-03				
35.400	2.922	3690.671	105.105	-7.656E-05	1.066E-03				
36.400	2.941	3690.685	108.103	-7.291E-05	1.030E-03				
37.400	2.941	3690.649	111.080	-8.203E-05	1.124E-03				
38.400	3.010	3690.639	114.104	-8.871E-05	1.025E-03				
39.400	3.010	3690.697	117.148	-6.319E-05	1.110E-03				
40.400	3.063	3690.685	120.118	-9.175E-05	1.117E-03				
41.400	3.024	3690.670	123.143	-9.600E-05	1.104E-03				
42.400	3.078	3690.717	126.253	-7.048E-05	1.094E-03				
43.400	3.121	3690.685	129.302	-8.567E-05	1.161E-03				
44.400	2.976	3690.711	132.248	-8.810E-05	1.032E-03				
45.400	3.078	3690.705	135.278	-7.960E-05	1.157E-03				
46.400	3.078	3690.722	138.369	-8.810E-05	1.065E-03				
47.400	3.180	3690.717	141.504	-8.506E-05	1.079E-03				
48.400	3.058	3690.710	144.546	-8.446E-05	1.034E-03				
49.400	2.990	3690.701	147.571	-8.810E-05	1.040E-03				
50.400	3.112	3690.728	150.601	-7.413E-05	1.278E-03				
51.400	3.078	3690.727	153.634	-7.413E-05	1.128E-03				
52.400	3.082	3690.727	156.682	-8.142E-05	1.106E-03				
53.400	2.946	3690.719	159.627	-9.114E-05	1.105E-03				
54.400	2.990	3690.724	162.555	-8.020E-05	1.131E-03				
55.400	3.014	3690.728	165.516	-8.142E-05	9.977E-04				
56.400	2.844	3690.724	168.433	-8.810E-05	1.099E-03				
57.400	2.835	3690.728	171.422	-7.413E-05	1.154E-03				
58.400	2.883	3690.696	174.383	-5.954E-05	1.108E-03				
59.400	2.864	3690.721	177.268	-8.506E-05	9.424E-04				
60.400	2.922	3690.750	180.225	-9.175E-05	1.035E-03				
61.400	3.000	3690.756	183.135	-9.722E-05	9.855E-04				
62.400	3.141	3690.727	186.113	-8.628E-05	9.375E-04				
63.400	3.107	3690.751	189.164	-7.716E-05	1.086E-03				
64.400	2.903	3690.765	192.141	-7.413E-05	9.564E-04				
65.400	2.932	3690.721	195.100	-7.230E-05	1.049E-03				
66.400	2.835	3690.731	197.916	-8.506E-05	1.062E-03				
67.400	2.903	3690.728	200.834	-8.081E-05	1.078E-03				
68.400	3.014	3690.775	203.817	-8.263E-05	1.081E-03				
69.400	2.859	3690.762	206.769	-8.567E-05	1.132E-03				
70.400	2.883	3690.768	209.711	-7.352E-05	1.103E-03				
71.400	3.097	3690.760	212.680	-9.539E-05	1.026E-03				
72.400	2.898	3690.742	215.624	-8.932E-05	1.047E-03				
73.400	3.014	3690.778	218.664	-7.838E-05	1.063E-03				
74.400	3.053	3690.752	221.658	-9.539E-05	1.079E-03				
75.400	2.971	3690.747	224.645	-8.628E-05	1.097E-03				
76.400	3.126	3690.760	227.630	-8.567E-05	1.097E-03				
77.400	2.971	3690.743	230.576	-7.838E-05	1.142E-03				
78.400	2.864	3690.780	233.421	-8.324E-05	9.940E-04				
79.400	2.976	3690.755	236.341	-9.843E-05	1.171E-03				
80.400	2.839	3690.779	239.185	-9.782E-05	1.068E-03				
81.400	2.985	3690.753	242.181	-8.749E-05	1.122E-03				
82.400	2.893	3690.780	245.122	-6.684E-05	1.057E-03				
83.400	2.898	3690.767	248.022	-8.446E-05	1.105E-03				
84.400	2.839	3690.783	250.972	-9.418E-05	1.111E-03				
85.400	2.951	3690.794	253.925	-7.291E-05	1.027E-03				
86.400	2.766	3690.750	256.789	-5.468E-05	1.032E-03				
87.400	3.005	3690.787	259.711	-8.628E-05	1.123E-03				
88.400	2.844	3690.774	262.621	-8.871E-05	1.055E-03				
89.400	2.907	3690.781	265.596	-7.656E-05	1.009E-03				
90.400	2.844	3690.801	268.548	-7.899E-05	1.077E-03				
91.400	3.073	3690.804	271.548	-7.716E-05	9.327E-04				
92.400	2.898	3690.777	274.448	-6.562E-05	1.081E-03				
93.400	2.776	3690.775	277.361	-8.081E-05	1.047E-03				
94.400	2.800	3690.781	280.223	-8.385E-05	1.032E-03				
95.400	3.014	3690.801	283.146	-1.009E-04	1.072E-03				
96.400	2.864	3690.804	286.090	-7.716E-05	1.072E-03				
97.400	2.869	3690.792	289.032	-9.053E-05	1.137E-03				
98.400	3.044	3690.808	292.053	-9.175E-05	1.043E-03				
99.400	2.898	3690.814	295.030	-8.932E-05	1.080E-03				
100.400	2.990	3690.826	298.142	-6.744E-05	1.049E-03				
101.400	3.092	3690.826	301.190	-8.992E-05	1.112E-03				
102.400	3.058	3690.841	304.203	-7.595E-05	9.916E-04				
103.400	2.985	3690.846	307.196	-7.048E-05	1.004E-03				
104.400	2.976	3690.836	310.190	-1.051E-04	1.116E-03				
105.400	2.995	3690.821	313.115	-8.446E-05	9.940E-04				
106.400	2.800	3690.818	316.033	-9.175E-05	1.143E-03				
107.400	2.956	3690.839	318.935	-7.960E-05	1.081E-03				
108.400	3.170	3690.827	321.960	-8.446E-05	1.094E-03				
109.400	2.985	3690.831	324.966	-9.114E-05	1.119E-03				
110.400	2.907	3690.808	327.975	-8.567E-05	9.892E-04				
111.400	2.951	3690.807	330.921	-1.003E-04	1.055E-03				
112.400	2.937	3690.818	333.861	-7.960E-05	1.118E-03				
113.400	2.961	3690.775	336.809	-8.689E-05	1.096E-03				
114.400	3.189	3690.812	339.787	-9.904E-05	1.032E-03				
115.400	2.932	3690.799	342.716	-8.689E-05	1.054E-03				
116.400	3.000	3690.822	345.684	-8.810E-05	1.029E-03				
117.400	3.048	3690.862	348.646	-8.081E-05	1.018E-03				
118.400	2.951	3690.819	351.568	-8.081E-05	1.061E-03				
119.400	2.815	3690.847	354.522	-8.689E-05	1.119E-03				
120.400	2.922	3690.845	357.407	-6.380E-05	1.220E-03				
121.400	3.053	3690.826	360.379	-8.567E-05	1.098E-03				
122.000	3.034	3690.853	362.154	-7.352E-05	1.084E-03				
122.200	252.723	3707.242	412.698	-7.838E-05	1.018E-03				
122.600	252.908	3707.482	513.843	-7.048E-05	1.050E-03				
123.400	252.923	3707.788	716.144	-9.539E-05	1.092E-03				
124.400	253.025	3708.134	969.144	-9.114E-05	1.049E-03				
125.400	252.850	3708.421	1221.994	-5.651E-05	1.103E-03				
126.400	252.932	3708.657	1474.895	-8.324E-05	1.137E-03				
127.400	252.962	3708.899	1727.862	-8.992E-05	1.097E-03				
128.400	253.054	3709.100	1980.951	-6.441E-05	1.160E-03				
129.400	253.185	3709.299	2233.994	-7.413E-05	1.056E-03				
130.400	253.107	3709.480	2487.103	-8.992E-05	1.061E-03				
131.400	253.098	3709.652	2740.099	-8.263E-05	1.158E-03				
132.400	253.151	3709.830	2993.136	-9.357E-05	9.831E-04				
133.400	253.039	3709.997	3246.167	-7.838E-05	1.177E-03				
134.400	252.923	3710.125	3499.100	-1.051E-04	1.139E-03				
135.400	253.049	3710.264	3752.105	-8.567E-05	1.126E-03				
136.400	252.908	3710.401	4005.089	-9.418E-05	9.284E-04				
137.400	253.064	3710.571	4258.079	-8.324E-05	1.140E-03				
138.400	253.005	3710.679	4511.082	-9.722E-05	1.077E-03				
139.400	252.893	3710.791	4764.005	-8.810E-05	1.024E-03				
140.400	252.816	3710.916	5016.901	-8.567E-05	1.043E-03				
141.400	252.855	3711.034	5269.833	-9.235E-05	1.046E-03				
142.400	252.996	3711.165	5522.746	-8.081E-05	1.048E-03				
143.400	252.830	3711.282	5775.641	-8.385E-05	1.065E-03				
144.400	252.923	3711.374	6028.559	-8.506E-05	1.020E-03				
145.400	253.000	3711.447	6281.541	-9.175E-05	1.147E-03				
146.400	253.122	3711.592	6534.553	-7.656E-05	1.075E-03				
147.400	253.044	3711.648	6787.559	-8.992E-05	1.094E-03				
148.400	252.937	3711.797	7040.484	-9.904E-05	1.110E-03				
149.400	253.171	3711.884	7293.435	-9.357E-05	1.065E-03				
150.400	252.957	3711.967	7546.443	-8.142E-05	1.142E-03				
151.400	253.078	3712.025	7799.484	-8.385E-05	1.031E-03				
152.400	253.049	3712.141	8052.491	-6.866E-05	1.088E-03				
153.400	253.093	3712.219	8305.560	-9.114E-05	1.005E-03				
154.400	252.996	3712.260	8558.606	-7.716E-05	1.150E-03				
155.400	253.073	3712.409	8811.608	-6.501E-05	1.120E-03				
156.400	253.122	3712.500	9064.689	-7.899E-05	1.115E-03				
157.400	252.991	3712.538	9317.619	-8.446E-05	1.154E-03				
158.400	252.986	3712.621	9570.558	-8.142E-05	1.102E-03				
159.400	253.117	3712.724	9823.550	-8.324E-05	1.092E-03				
160.400	253.088	3712.821	10076.612	-9.661E-05	1.099E-03				
161.400	252.981	3712.867	10329.564	-7.838E-05	1.148E-03				
162.400	253.049	3712.966	10582.523	-7.352E-05	1.084E-03				
163.400	252.966	3713.005	10835.509	-7.413E-05	1.035E-03				
164.400	252.942	3713.076	11088.513	-6.866E-05	1.118E-03				
165.400	253.000	3713.172	11341.523	-7.716E-05	9.946E-04				
166.400	253.015	3713.249	11594.525	-8.142E-05	1.043E-03				
167.400	253.030	3713.300	11847.533	-6.562E-05	1.077E-03				
168.400	252.918	3713.371	12100.504	-8.142E-05	9.880E-04				
169.400	253.083	3713.425	12353.516	-9.539E-05	1.063E-03				
170.400	253.069	3713.497	12606.547	-7.473E-05	9.873E-04				
171.400	252.996	3713.519	12859.574	-8.871E-05	1.117E-03				
172.400	252.991	3713.621	13112.630	-8.506E-05	9.673E-04				
173.400	252.986	3713.698	13365.664	-8.628E-05	9.934E-04				
174.400	253.093	3713.713	13618.720	-9.782E-05	1.100E-03				
175.400	253.025	3713.813	13871.730	-9.843E-05	1.134E-03				
176.400	252.971	3713.888	14124.648	-8.689E-05	1.102E-03				
177.400	252.942	3713.936	14377.537	-7.291E-05	1.063E-03				
178.400	252.913	3714.016	14630.492	-7.777E-05	1.123E-03				
179.400	252.981	3714.072	14883.496	-8.871E-05	1.043E-03				
180.400	252.957	3714.122	15136.508	-6.380E-05	1.015E-03				
181.400	253.010	3714.215	15389.503	-8.081E-05	1.027E-03				
182.400	252.898	3714.225	15642.444	-8.992E-05	1.164E-03				
183.400	253.069	3714.303	15895.424	-7.899E-05	1.180E-03				
184.400	253.015	3714.374	16148.499	-8.081E-05	1.121E-03				
185.400	252.918	3714.437	16401.455	-9.114E-05	1.026E-03				
186.400	252.859	3714.493	16654.415	-9.418E-05	1.072E-03				
187.400	253.059	3714.550	16907.431	-8.932E-05	1.132E-03				
188.400	252.928	3714.615	17160.463	-8.324E-05	1.130E-03				
189.400	252.981	3714.656	17413.393	-8.324E-05	1.080E-03				
190.400	252.957	3714.691	17666.307	-6.441E-05	1.140E-03				
191.400	252.898	3714.749	17919.254	-9.053E-05	1.042E-03				
192.400	253.010	3714.828	18172.203	-8.203E-05	1.082E-03				
193.400	253.005	3714.888	18425.161	-8.871E-05	1.053E-03				
194.400	252.918	3714.932	18678.068	-8.446E-05	1.037E-03				
195.400	252.879	3714.964	18930.874	-8.749E-05	1.040E-03				
196.400	252.796	3715.019	19183.767	-8.506E-05	1.049E-03				
197.400	252.879	3715.096	19436.737	-8.689E-05	1.021E-03				
198.400	252.855	3715.150	19689.650	-9.235E-05	1.042E-03				
199.400	253.000	3715.159	19942.551	-8.567E-05	1.165E-03				
200.400	252.918	3715.202	20195.488	-8.263E-05	9.649E-04				
201.400	253.039	3715.295	20448.484	-8.992E-05	1.042E-03				
202.400	252.937	3715.339	20701.494	-8.567E-05	1.077E-03				
203.400	253.093	3715.408	20954.500	-7.595E-05	1.155E-03				
204.400	253.112	3715.439	21207.573	-8.749E-05	1.048E-03				
205.400	252.962	3715.505	21460.556	-6.987E-05	1.100E-03				
206.400	252.966	3715.557	21713.484	-9.357E-05	1.104E-03				
207.400	252.884	3715.624	21966.442	-1.009E-04	1.055E-03				
208.400	253.025	3715.671	22219.320	-8.567E-05	1.035E-03				
209.400	252.957	3715.714	22472.271	-9.114E-05	1.081E-03				
210.400	253.005	3715.780	22725.239	-9.782E-05	1.134E-03				
211.400	252.928	3715.822	22978.144	-8.446E-05	1.122E-03				
212.400	252.816	3715.857	23231.092	-7.534E-05	1.155E-03				
213.400	252.869	3715.927	23483.978	-8.628E-05	1.160E-03				
214.400	252.889	3715.966	23736.877	-7.413E-05	1.150E-03				
215.400	253.010	3716.036	23989.801	-9.175E-05	1.092E-03				
216.400	253.175	3716.083	24242.849	-8.506E-05	1.104E-03				
217.400	253.010	3716.129	24495.831	-7.716E-05	1.043E-03				
218.400	252.898	3716.173	24748.777	-8.810E-05	9.904E-04				
219.400	252.791	3716.204	25001.762	-7.291E-05	1.120E-03				
220.400	252.942	3716.289	25254.704	-8.385E-05	1.047E-03				
221.400	253.078	3716.311	25507.744	-7.716E-05	1.140E-03				
222.400	252.976	3716.364	25760.715	-6.987E-05	1.102E-03				
223.400	252.986	3716.422	26013.723	-9.722E-05	1.038E-03				
224.400	252.986	3716.472	26266.802	-7.352E-05	1.035E-03				
225.400	253.078	3716.550	26519.871	-7.716E-05	1.058E-03				
226.400	253.005	3716.543	26772.909	-8.932E-05	1.027E-03				
227.400	252.937	3716.641	27025.974	-6.927E-05	9.995E-04				
228.400	253.044	3716.633	27278.980	-7.413E-05	1.052E-03				
229.400	252.942	3716.726	27532.009	-8.203E-05	1.024E-03				
230.000	253.005	3716.739	27683.786	-8.992E-05	1.184E-03				
230.200	3.214	3700.412	27684.429	-9.479E-05	9.983E-04				
230.600	3.189	3700.232	27685.707	-7.109E-05	1.097E-03				
231.400	2.941	3699.887	27688.097	-8.871E-05	1.065E-03				
232.400	3.063	3699.638	27691.097	-7.473E-05	1.023E-03				
233.400	2.883	3699.385	27694.103	-7.838E-05	1.066E-03				
234.400	3.165	3699.224	27697.161	-9.175E-05	1.129E-03				
235.400	3.097	3699.024	27700.161	-8.932E-05	1.075E-03				
236.400	2.927	3698.895	27703.140	-9.175E-05	1.083E-03				
237.400	3.131	3698.732	27706.257	-8.810E-05	1.064E-03				
238.400	2.985	3698.612	27709.261	-8.628E-05	1.094E-03				
239.400	3.209	3698.484	27712.275	-8.749E-05	1.134E-03				
240.400	3.082	3698.375	27715.355	-8.749E-05	1.086E-03				
241.400	3.175	3698.290	27718.405	-8.446E-05	1.139E-03				
242.400	3.000	3698.156	27721.531	-8.810E-05	1.013E-03				
243.400	3.082	3698.056	27724.566	-8.203E-05	1.094E-03				
244.400	2.995	3697.986	27727.602	-8.203E-05	9.940E-04				
245.400	3.019	3697.928	27730.694	-8.506E-05	1.119E-03				
246.400	3.044	3697.819	27733.788	-9.661E-05	1.052E-03				
247.400	2.903	3697.762	27736.773	-8.506E-05	9.892E-04				
248.400	3.126	3697.689	27739.859	-8.446E-05	9.369E-04				
249.400	2.985	3697.615	27742.910	-8.142E-05	1.022E-03				
250.400	3.165	3697.521	27745.996	-9.175E-05	9.922E-04				
251.400	3.048	3697.508	27749.027	-7.960E-05	9.691E-04				
252.400	3.126	3697.402	27752.092	-7.352E-05	1.004E-03				
253.400	3.112	3697.385	27755.142	-8.203E-05	1.156E-03				
254.400	2.995	3697.335	27758.114	-9.600E-05	1.036E-03				
255.400	3.068	3697.294	27761.177	-8.385E-05	1.138E-03				
256.400	3.078	3697.220	27764.292	-8.871E-05	1.049E-03				
257.400	2.844	3697.189	27767.263	-7.230E-05	1.072E-03				
258.400	3.005	3697.168	27770.311	-1.003E-04	1.080E-03				
259.400	3.082	3697.111	27773.310	-6.805E-05	1.119E-03				
260.400	3.048	3697.083	27776.325	-6.623E-05	1.114E-03				
261.400	2.976	3697.042	27779.274	-1.045E-04	1.146E-03				
262.400	3.102	3697.038	27782.307	-7.838E-05	1.048E-03				
263.400	2.922	3696.965	27785.294	-8.749E-05	1.004E-03				
264.400	3.073	3696.964	27788.235	-8.142E-05	1.121E-03				
265.400	2.917	3696.916	27791.227	-7.473E-05	1.106E-03				
266.400	2.927	3696.888	27794.243	-8.871E-05	1.039E-03				
267.400	3.146	3696.873	27797.342	-8.020E-05	1.087E-03				
268.400	3.034	3696.842	27800.358	-9.053E-05	1.105E-03				
269.400	2.941	3696.785	27803.343	-8.020E-05	9.758E-04				
270.400	3.000	3696.766	27806.297	-9.235E-05	1.071E-03				
271.400	2.888	3696.755	27809.212	-7.109E-05	1.105E-03				
272.400	2.941	3696.733	27812.124	-7.534E-05	1.042E-03				
273.400	3.058	3696.716	27815.081	-6.684E-05	1.012E-03				
274.400	2.946	3696.696	27818.077	-1.015E-04	1.065E-03				
275.400	3.082	3696.643	27821.095	-7.838E-05	1.040E-03				
276.400	3.053	3696.610	27824.078	-6.927E-05	1.100E-03				
277.400	3.034	3696.630	27827.080	-9.600E-05	9.886E-04				
278.400	2.917	3696.637	27830.017	-8.020E-05	1.034E-03				
279.400	2.995	3696.580	27832.973	-9.175E-05	1.064E-03				
280.400	3.024	3696.601	27835.932	-8.567E-05	1.106E-03				
281.400	2.941	3696.550	27838.905	-7.960E-05	1.007E-03				
282.400	2.976	3696.545	27841.846	-8.689E-05	1.099E-03				
283.400	2.990	3696.492	27844.822	-7.595E-05	1.037E-03				
284.400	2.917	3696.532	27847.733	-9.418E-05	1.056E-03				
285.400	2.971	3696.506	27850.668	-9.722E-05	1.162E-03				
286.400	3.000	3696.485	27853.592	-6.380E-05	1.027E-03				
287.400	2.907	3696.456	27856.506	-9.357E-05	1.089E-03				
288.400	3.029	3696.471	27859.486	-9.418E-05	1.042E-03				
289.400	2.956	3696.440	27862.495	-8.749E-05	1.131E-03				
290.400	2.980	3696.432	27865.498	-7.777E-05	1.111E-03				
291.400	2.810	3696.428	27868.431	-6.987E-05	1.114E-03				
292.400	3.005	3696.417	27871.456	-8.142E-05	1.141E-03				
293.400	3.044	3696.407	27874.460	-7.656E-05	1.067E-03				
294.400	2.937	3696.400	27877.455	-6.562E-05	1.085E-03				
295.400	2.990	3696.381	27880.472	-7.838E-05	1.121E-03				
296.400	3.053	3696.372	27883.471	-9.479E-05	9.424E-04				
297.400	3.102	3696.364	27886.526	-7.960E-05	1.113E-03				
298.400	2.966	3696.327	27889.603	-1.051E-04	1.017E-03				
299.400	3.063	3696.346	27892.666	-8.081E-05	9.916E-04				
300.400	3.155	3696.332	27895.676	-9.175E-05	9.922E-04				
301.400	3.000	3696.333	27898.684	-8.324E-05	1.039E-03				
302.400	2.995	3696.298	27901.711	-8.203E-05	9.880E-04				
303.400	2.854	3696.293	27904.655	-9.539E-05	1.106E-03				
304.400	2.946	3696.273	27907.623	-9.296E-05	9.077E-04				
305.400	3.039	3696.276	27910.585	-7.960E-05	1.078E-03				
306.400	2.985	3696.275	27913.624	-8.871E-05	1.037E-03				
307.400	3.024	3696.273	27916.660	-8.081E-05	9.479E-04				
308.400	3.029	3696.240	27919.777	-6.987E-05	1.155E-03				
309.400	2.864	3696.250	27922.821	-7.534E-05	1.093E-03				
310.400	2.961	3696.240	27925.823	-6.501E-05	1.071E-03				
311.400	3.175	3696.232	27928.955	-7.291E-05	1.126E-03				
312.400	2.956	3696.239	27931.959	-9.418E-05	1.078E-03				
313.400	3.039	3696.217	27934.990	-9.418E-05	1.146E-03				
314.400	2.883	3696.225	27937.906	-7.777E-05	1.092E-03				
315.400	2.927	3696.209	27940.838	-8.081E-05	1.129E-03				
316.400	2.985	3696.150	27943.836	-8.446E-05	1.099E-03				
317.400	2.922	3696.200	27946.753	-8.810E-05	1.024E-03				
318.400	2.898	3696.187	27949.736	-7.899E-05	1.089E-03				
319.400	3.000	3696.203	27952.724	-8.385E-05	1.167E-03				
320.400	3.000	3696.185	27955.685	-7.413E-05	1.167E-03				
321.400	3.010	3696.186	27958.628	-8.689E-05	1.153E-03				
322.400	2.903	3696.177	27961.590	-8.385E-05	1.065E-03				
323.400	2.966	3696.164	27964.556	-8.203E-05	1.117E-03				
324.400	3.078	3696.182	27967.535	-8.020E-05	1.095E-03				
325.400	2.985	3696.157	27970.652	-8.142E-05	9.849E-04				
326.400	3.078	3696.192	27973.587	-7.656E-05	1.069E-03				
327.400	2.907	3696.150	27976.616	-7.838E-05	1.000E-03				
328.400	2.927	3696.148	27979.582	-6.380E-05	1.075E-03				
329.400	2.888	3696.115	27982.534	-7.960E-05	1.017E-03				
330.400	3.024	3696.147	27985.556	-8.810E-05	9.715E-04				
331.400	2.946	3696.157	27988.562	-7.230E-05	9.825E-04				
332.400	3.087	3696.120	27991.638	-8.567E-05	1.092E-03				
333.400	3.092	3696.115	27994.715	-7.777E-05	1.061E-03				
334.400	3.107	3696.112	27997.759	-9.296E-05	1.106E-03				
335.400	3.010	3696.110	28000.832	-7.413E-05	1.021E-03				
336.400	3.082	3696.120	28003.893	-7.230E-05	1.124E-03				
337.400	3.010	3696.113	28006.985	-8.689E-05	1.151E-03				
338.400	3.000	3696.107	28010.069	-7.899E-05	1.088E-03				
339.400	3.155	3696.069	28013.144	-8.203E-05	9.715E-04				
340.400	2.985	3696.052	28016.130	-8.020E-05	1.089E-03				
341.400	2.946	3696.100	28019.108	-7.960E-05	1.114E-03				
342.400	3.005	3696.068	28022.041	-7.777E-05	1.061E-03				
343.400	3.019	3696.077	28025.019	-7.473E-05	1.167E-03				
344.400	2.980	3696.069	28028.015	-8.446E-05	1.075E-03				
345.400	3.014	3696.071	28031.044	-7.656E-05	1.047E-03				
346.400	2.927	3696.081	28034.058	-9.904E-05	1.066E-03				
347.400	3.044	3696.058	28037.018	-8.810E-05	1.016E-03				
348.400	2.966	3696.006	28040.028	-7.534E-05	1.031E-03				
349.400	3.048	3696.072	28043.093	-8.810E-05	1.016E-03				
350.000	3.078	3696.059	28044.950	-7.170E-05	1.182E-03				
350.200	-246.780	3679.682	27995.594	-7.960E-05	1.083E-03				
350.600	-247.144	3679.410	27896.772	-7.656E-05	1.044E-03				
351.400	-247.062	3679.137	27699.156	-7.656E-05	1.113E-03				
352.400	-246.989	3678.754	27452.120	-7.291E-05	1.038E-03				
353.400	-247.125	3678.518	27205.091	-8.081E-05	1.119E-03				
354.400	-247.025	3678.180	26958.023	-8.992E-05	1.044E-03				
355.400	-247.130	3678.012	26710.974	-8.081E-05	1.050E-03				
356.400	-247.064	3677.798	26463.921	-6.927E-05	9.752E-04				
357.400	-246.976	3677.552	26216.839	-6.684E-05	1.036E-03				
358.400	-247.122	3677.349	25969.732	-8.081E-05	1.099E-03				
359.400	-247.035	3677.179	25722.746	-8.020E-05	1.041E-03				
360.400	-246.974	3677.034	25475.723	-6.866E-05	1.090E-03				
361.400	-247.093	3676.811	25228.676	-7.656E-05	1.121E-03				
362.400	-247.052	3676.690	24981.583	-7.109E-05	1.028E-03				
363.400	-246.935	3676.523	24734.585	-8.142E-05	1.012E-03				
364.400	-247.013	3676.372	24487.627	-6.805E-05	1.041E-03				
365.400	-247.006	3676.256	24240.637	-8.385E-05	1.055E-03				
366.400	-247.081	3676.147	23993.616	-7.230E-05	1.179E-03				
367.400	-247.059	3675.958	23746.616	-7.777E-05	1.026E-03				
368.400	-246.959	3675.846	23499.548	-7.534E-05	1.129E-03				
369.400	-247.100	3675.735	23252.533	-5.711E-05	1.129E-03				
370.400	-247.093	3675.608	23005.405	-7.352E-05	1.006E-03				
371.400	-247.096	3675.506	22758.272	-7.656E-05	1.057E-03				
372.400	-247.137	3675.373	22511.127	-8.203E-05	1.066E-03				
373.400	-247.130	3675.244	22264.013	-7.170E-05	1.072E-03				
374.400	-247.110	3675.131	22016.865	-8.020E-05	1.025E-03				
375.400	-247.100	3675.025	21769.703	-7.413E-05	1.077E-03				
376.400	-247.098	3674.883	21522.491	-7.716E-05	1.040E-03				
377.400	-247.229	3674.818	21275.272	-7.595E-05	1.186E-03				
378.400	-247.220	3674.726	21028.107	-7.109E-05	1.058E-03				
379.400	-247.144	3674.630	20780.943	-8.385E-05	1.015E-03				
380.400	-247.088	3674.546	20533.854	-8.020E-05	1.113E-03				
381.400	-247.161	3674.428	20286.728	-8.263E-05	1.118E-03				
382.400	-247.018	3674.343	20039.675	-7.960E-05	1.038E-03				
383.400	-246.857	3674.264	19792.639	-8.749E-05	1.079E-03				
384.400	-247.008	3674.152	19545.603	-8.871E-05	1.034E-03				
385.400	-247.066	3674.103	19298.529	-8.263E-05	1.025E-03				
386.400	-247.083	3673.966	19051.497	-9.539E-05	1.009E-03				
387.400	-247.035	3673.891	18804.405	-6.623E-05	1.061E-03				
388.400	-247.166	3673.846	18557.253	-8.020E-05	9.977E-04				
389.400	-247.011	3673.755	18310.167	-8.567E-05	1.124E-03				
390.400	-247.161	3673.649	18063.070	-8.324E-05	9.679E-04				
391.400	-247.195	3673.594	17815.924	-9.782E-05	1.150E-03				
392.400	-247.307	3673.504	17568.727	-8.142E-05	1.103E-03				
393.400	-247.113	3673.384	17321.581	-7.170E-05	1.055E-03				
394.400	-247.110	3673.354	17074.463	-8.020E-05	1.113E-03				
395.400	-247.307	3673.271	16827.257	-6.866E-05	1.043E-03				
396.400	-247.268	3673.204	16579.964	-8.871E-05	1.128E-03				
397.400	-247.280	3673.134	16332.724	-9.296E-05	1.020E-03				
398.400	-247.280	3673.019	16085.573	-7.291E-05	1.123E-03				
399.400	-247.297	3672.977	15838.400	-7.899E-05	1.044E-03				
400.400	-247.193	3672.907	15591.278	-6.987E-05	1.110E-03				
401.400	-247.144	3672.846	15344.090	-8.446E-05	1.077E-03				
402.400	-247.229	3672.739	15096.844	-8.263E-05	1.134E-03				
403.400	-247.037	3672.658	14849.664	-8.020E-05	1.130E-03				
404.400	-247.217	3672.624	14602.547	-9.904E-05	1.092E-03				
405.400	-246.967	3672.571	14355.479	-7.899E-05	1.063E-03				
406.400	-247.064	3672.467	14108.392	-7.230E-05	1.057E-03				
407.400	-247.079	3672.414	13861.275	-8.324E-05	9.715E-04				
408.400	-247.159	3672.350	13614.157	-7.170E-05	1.023E-03				
409.400	-247.139	3672.266	13367.146	-7.656E-05	1.024E-03				
410.400	-247.154	3672.192	13119.994	-8.020E-05	1.184E-03				
411.400	-247.142	3672.151	12872.844	-7.473E-05	9.564E-04				
412.400	-247.108	3672.102	12625.696	-8.628E-05	1.145E-03				
413.400	-247.054	3672.004	12378.542	-7.838E-05	1.009E-03				
414.400	-247.144	3671.916	12131.365	-6.866E-05	1.068E-03				
415.400	-247.069	3671.845	11884.271	-8.932E-05	1.071E-03				
416.400	-247.130	3671.855	11637.140	-7.473E-05	1.157E-03				
417.400	-247.246	3671.738	11389.996	-7.595E-05	1.023E-03				
418.400	-247.220	3671.712	11142.827	-9.296E-05	1.069E-03				
419.400	-247.132	3671.657	10895.720	-7.777E-05	9.558E-04				
420.400	-246.964	3671.610	10648.661	-7.473E-05	1.117E-03				
421.400	-247.215	3671.548	10401.530	-7.048E-05	9.661E-04				
422.400	-247.108	3671.461	10154.402	-8.142E-05	1.137E-03				
423.400	-247.113	3671.421	9907.281	-8.749E-05	1.115E-03				
424.400	-247.045	3671.331	9660.185	-8.263E-05	1.085E-03				
425.400	-247.254	3671.282	9413.066	-8.749E-05	1.136E-03				
426.400	-246.967	3671.257	9165.982	-8.020E-05	1.046E-03				
427.400	-247.057	3671.165	8918.940	-7.899E-05	1.139E-03				
428.400	-246.952	3671.130	8671.898	-5.894E-05	1.059E-03				
429.400	-247.040	3671.085	8424.794	-9.114E-05	1.136E-03				
430.400	-247.188	3671.002	8177.614	-7.170E-05	1.009E-03				
431.400	-247.254	3670.941	7930.461	-8.324E-05	1.051E-03				
432.400	-246.957	3670.894	7683.375	-7.534E-05	9.952E-04				
433.400	-246.964	3670.850	7436.356	-9.539E-05	1.128E-03				
434.400	-247.125	3670.801	7189.254	-6.866E-05	1.069E-03				
435.400	-247.183	3670.731	6942.119	-9.053E-05	9.539E-04				
436.400	-247.288	3670.693	6694.957	-6.744E-05	1.091E-03				
437.400	-247.149	3670.602	6447.792	-6.927E-05	1.020E-03				
438.400	-247.011	3670.562	6200.724	-8.749E-05	1.135E-03				
439.400	-247.023	3670.523	5953.673	-8.567E-05	1.043E-03				
440.400	-247.139	3670.473	5706.604	-8.324E-05	1.109E-03				
441.400	-247.149	3670.386	5459.430	-7.960E-05	9.916E-04				
442.400	-247.266	3670.332	5212.246	-9.357E-05	1.034E-03				
443.400	-247.030	3670.297	4965.070	-9.843E-05	1.156E-03				
444.400	-247.154	3670.243	4717.944	-6.927E-05	9.983E-04				
445.400	-247.139	3670.190	4470.886	-9.539E-05	1.119E-03				
446.400	-247.207	3670.142	4223.721	-8.932E-05	1.082E-03				
447.400	-247.198	3670.100	3976.569	-9.114E-05	1.058E-03				
448.400	-247.147	3669.989	3729.397	-8.871E-05	1.159E-03				
449.400	-247.220	3669.944	3482.192	-9.479E-05	1.194E-03				
450.400	-247.205	3669.912	3234.960	-7.170E-05	1.142E-03				
451.400	-247.161	3669.825	2987.788	-8.446E-05	1.120E-03				
452.400	-247.276	3669.803	2740.567	-7.048E-05	1.098E-03				
453.400	-247.159	3669.780	2493.393	-6.866E-05	1.151E-03				
454.400	-247.346	3669.710	2246.136	-8.385E-05	1.013E-03				
455.400	-247.341	3669.671	1998.862	-8.203E-05	1.094E-03				
456.400	-247.049	3669.572	1751.707	-6.744E-05	9.630E-04				
457.400	-247.169	3669.557	1504.572	-7.291E-05	1.022E-03				
458.000	-247.156	3669.462	1356.259	-8.324E-05	1.114E-03				
458.200	2.728	3685.899	1356.805	-7.777E-05	1.035E-03				
458.600	2.995	3686.151	1357.988	-8.446E-05	9.880E-04				
459.400	2.932	3686.451	1360.358	-6.987E-05	1.060E-03				
460.400	2.864	3686.663	1363.200	-9.114E-05	1.080E-03				
461.400	2.830	3686.907	1366.129	-8.749E-05	9.521E-04				
462.400	2.951	3687.093	1369.083	-8.567E-05	1.001E-03				
463.400	3.097	3687.252	1372.058	-7.473E-05	1.010E-03				
464.400	2.951	3687.411	1375.003	-8.263E-05	9.643E-04				
465.400	3.141	3687.574	1377.981	-7.473E-05	9.314E-04				
466.400	3.000	3687.735	1380.940	-7.838E-05	9.910E-04				
467.400	2.966	3687.810	1383.967	-6.137E-05	1.085E-03				
468.400	3.014	3687.931	1386.912	-8.324E-05	1.113E-03				
469.400	3.034	3688.053	1389.887	-7.170E-05	9.977E-04				
470.400	2.980	3688.148	1392.918	-9.296E-05	1.172E-03				
471.400	2.971	3688.256	1395.905	-7.960E-05	1.114E-03				
472.400	2.907	3688.339	1398.861	-7.960E-05	1.150E-03				
473.400	3.029	3688.402	1401.895	-7.595E-05	1.132E-03				
474.400	2.888	3688.496	1404.804	-8.932E-05	1.073E-03				
475.400	2.903	3688.576	1407.781	-6.987E-05	1.164E-03				
476.400	2.971	3688.608	1410.762	-9.235E-05	1.051E-03				
477.400	3.053	3688.690	1413.751	-8.263E-05	1.097E-03				
478.400	3.039	3688.766	1416.741	-6.319E-05	1.044E-03				
479.400	2.922	3688.808	1419.749	-7.352E-05	1.132E-03				
480.400	2.976	3688.875	1422.646	-7.109E-05	1.012E-03				
481.400	2.873	3688.929	1425.571	-8.932E-05	1.139E-03				
482.400	2.888	3688.984	1428.416	-7.716E-05	1.037E-03				
483.400	2.786	3689.016	1431.284	-8.203E-05	1.015E-03				
484.400	2.747	3689.070	1434.177	-7.413E-05	1.065E-03				
485.400	2.781	3689.113	1437.026	-5.529E-05	1.123E-03				
486.400	2.869	3689.167	1439.891	-9.235E-05	1.030E-03				
487.400	2.883	3689.210	1442.827	-8.567E-05	1.084E-03				
488.400	2.980	3689.231	1445.777	-7.534E-05	1.094E-03				
489.400	2.907	3689.279	1448.650	-7.230E-05	1.057E-03				
490.400	2.732	3689.279	1451.443	-8.203E-05	1.024E-03				
491.400	2.941	3689.328	1454.222	-9.114E-05	9.436E-04				
492.400	2.951	3689.354	1457.129	-8.324E-05	1.065E-03				
493.400	2.898	3689.410	1460.080	-7.899E-05	1.018E-03				
494.400	2.971	3689.440	1463.036	-7.473E-05	1.069E-03				
495.400	2.849	3689.485	1465.933	-9.114E-05	1.032E-03				
496.400	2.985	3689.515	1468.839	-8.992E-05	1.152E-03				
497.400	2.903	3689.547	1471.748	-7.656E-05	1.074E-03				
498.400	2.869	3689.568	1474.650	-8.263E-05	9.776E-04				
499.400	2.937	3689.579	1477.529	-9.175E-05	1.071E-03				
500.400	2.888	3689.623	1480.387	-7.777E-05	1.064E-03				
501.400	2.903	3689.637	1483.273	-9.114E-05	1.059E-03				
502.400	2.859	3689.664	1486.209	-6.258E-05	1.133E-03				
503.400	2.864	3689.675	1489.142	-8.628E-05	9.357E-04				
504.400	2.835	3689.731	1492.067	-8.203E-05	1.128E-03				
505.400	2.796	3689.702	1494.899	-8.567E-05	1.034E-03				
506.400	2.694	3689.731	1497.676	-9.600E-05	1.161E-03				
507.400	2.854	3689.752	1500.559	-6.441E-05	1.090E-03				
508.400	2.873	3689.762	1503.371	-6.866E-05	1.023E-03				
509.400	2.805	3689.801	1506.292	-6.380E-05	1.046E-03				
510.400	2.966	3689.822	1509.211	-8.749E-05	9.928E-04				
511.400	2.883	3689.837	1512.120	-7.595E-05	1.036E-03				
512.400	2.830	3689.871	1515.045	-8.324E-05	1.035E-03				
513.400	2.878	3689.852	1517.936	-8.506E-05	1.026E-03				
514.400	2.849	3689.873	1520.821	-9.357E-05	9.181E-04				
515.400	2.752	3689.853	1523.613	-6.076E-05	1.087E-03				
516.400	2.907	3689.935	1526.471	-8.567E-05	1.006E-03				
517.400	2.854	3689.920	1529.274	-6.866E-05	1.002E-03				
518.400	2.941	3689.958	1532.201	-8.324E-05	9.995E-04				
519.400	2.864	3689.983	1535.053	-8.810E-05	1.116E-03				
520.400	2.946	3689.987	1537.956	-6.562E-05	1.126E-03				
521.400	2.903	3690.011	1540.847	-8.081E-05	1.095E-03				
522.400	2.830	3689.988	1543.748	-8.446E-05	1.075E-03				
523.400	2.873	3690.006	1546.577	-7.716E-05	1.022E-03				
524.400	2.805	3689.996	1549.344	-7.048E-05	1.055E-03				
525.400	2.820	3690.001	1552.190	-8.689E-05	1.064E-03				
526.400	2.869	3690.065	1555.037	-8.506E-05	9.387E-04				
527.400	2.723	3690.050	1557.841	-8.020E-05	1.165E-03				
528.400	2.791	3690.050	1560.647	-7.291E-05	1.117E-03				
529.400	2.742	3690.107	1563.402	-8.020E-05	1.109E-03				
530.400	2.849	3690.068	1566.211	-6.866E-05	1.222E-03				
531.400	2.864	3690.099	1569.047	-8.932E-05	1.127E-03				
532.400	2.839	3690.126	1571.836	-5.833E-05	1.106E-03				
533.400	2.786	3690.095	1574.601	-8.992E-05	1.131E-03				
534.400	2.786	3690.110	1577.372	-9.296E-05	1.008E-03				
535.400	2.844	3690.123	1580.177	-6.805E-05	9.764E-04				
536.400	2.941	3690.150	1583.090	-9.175E-05	1.137E-03				
537.400	2.888	3690.132	1585.987	-7.716E-05	1.048E-03				
538.400	2.956	3690.162	1588.904	-6.380E-05	1.035E-03				
539.400	2.888	3690.159	1591.789	-7.777E-05	1.075E-03				
540.400	2.907	3690.198	1594.605	-6.137E-05	1.058E-03				
541.400	2.839	3690.181	1597.440	-6.441E-05	9.703E-04				
542.400	2.776	3690.176	1600.230	-7.777E-05	9.108E-04				
543.400	2.786	3690.202	1603.033	-8.263E-05	9.813E-04				
544.400	2.762	3690.202	1605.847	-6.684E-05	1.031E-03				
545.400	2.805	3690.195	1608.653	-7.899E-05	1.079E-03				
546.400	2.825	3690.234	1611.444	-6.987E-05	1.085E-03				
547.400	2.844	3690.257	1614.215	-8.385E-05	9.588E-04				
548.400	2.820	3690.249	1617.054	-8.567E-05	1.229E-03				
549.400	2.859	3690.257	1619.958	-8.992E-05	1.047E-03				
550.400	2.912	3690.271	1622.819	-7.352E-05	1.080E-03				
551.400	2.873	3690.247	1625.646	-8.567E-05	1.077E-03				
552.400	2.698	3690.304	1628.450	-7.170E-05	1.055E-03				
553.400	3.078	3690.300	1631.383	-6.866E-05	1.028E-03				
554.400	2.907	3690.289	1634.364	-9.053E-05	1.152E-03				
555.400	2.912	3690.274	1637.261	-9.114E-05	1.093E-03				
556.400	2.907	3690.273	1640.157	-9.843E-05	1.094E-03				
557.400	2.951	3690.325	1643.067	-7.048E-05	1.021E-03				
558.400	2.995	3690.341	1645.993	-6.927E-05	1.086E-03				
559.400	3.029	3690.325	1648.937	-6.866E-05	1.047E-03				
560.400	3.029	3690.331	1651.920	-9.843E-05	1.149E-03				
561.400	2.791	3690.343	1654.866	-7.534E-05	1.018E-03				
562.400	3.000	3690.360	1657.869	-9.357E-05	1.109E-03				
563.400	2.912	3690.329	1660.795	-6.744E-05	9.321E-04				
564.400	2.985	3690.378	1663.758	-8.263E-05	1.119E-03				
565.400	2.835	3690.357	1666.709	-8.506E-05	1.168E-03				
566.400	2.912	3690.365	1669.636	-8.081E-05	1.063E-03				
567.400	2.985	3690.418	1672.627	-7.413E-05	1.033E-03				
568.400	2.951	3690.381	1675.552	-7.534E-05	1.036E-03				
569.400	2.766	3690.366	1678.404	-8.263E-05	1.180E-03				
570.400	2.747	3690.403	1681.262	-9.600E-05	9.728E-04				
571.400	2.883	3690.384	1684.103	-7.656E-05	1.113E-03				
572.400	2.898	3690.415	1687.006	-7.899E-05	1.064E-03				
573.400	3.078	3690.391	1689.946	-8.324E-05	1.123E-03				
574.400	2.708	3690.393	1692.787	-7.534E-05	1.012E-03				
575.400	2.932	3690.401	1695.630	-8.567E-05	1.120E-03				
576.400	3.005	3690.437	1698.574	-7.534E-05	1.058E-03				
577.400	2.976	3690.408	1701.417	-9.296E-05	1.056E-03				
578.000	2.878	3690.423	1703.179	-7.473E-05	1.136E-03				
578.200	502.437	3723.204	1803.666	-7.473E-05	1.094E-03				
578.600	502.651	3723.660	2004.715	-8.567E-05	1.175E-03				
579.400	502.773	3724.319	2406.837	-8.324E-05	1.037E-03				
580.400	502.748	3724.971	2909.542	-7.109E-05	1.134E-03				
581.400	502.811	3725.507	3412.356	-8.385E-05	1.195E-03				
582.400	502.646	3726.045	3915.133	-7.595E-05	1.078E-03				
583.400	502.841	3726.468	4417.894	-8.020E-05	1.152E-03				
584.400	502.758	3726.926	4920.743	-7.838E-05	1.110E-03				
585.400	502.821	3727.306	5423.554	-8.992E-05	1.080E-03				
586.400	502.792	3727.710	5926.306	-6.866E-05	1.075E-03				
587.400	502.802	3728.052	6429.187	-8.263E-05	1.066E-03				
588.400	502.850	3728.402	6931.983	-8.020E-05	1.052E-03				
589.400	502.811	3728.724	7434.739	-7.960E-05	1.145E-03				
590.400	502.850	3729.042	7937.558	-8.932E-05	1.040E-03				
591.400	502.724	3729.352	8440.313	-7.777E-05	1.164E-03				
592.400	502.738	3729.591	8943.180	-6.744E-05	9.928E-04				
593.400	502.870	3729.893	9446.095	-8.628E-05	1.116E-03				
594.400	502.797	3730.103	9948.912	-8.203E-05	1.037E-03				
595.400	502.641	3730.388	10451.687	-8.689E-05	1.100E-03				
596.400	502.952	3730.672	10954.527	-8.749E-05	1.120E-03				
597.400	502.855	3730.875	11457.286	-8.871E-05	1.013E-03				
598.400	502.928	3731.134	11960.178	-9.053E-05	9.764E-04				
599.400	502.807	3731.364	12462.948	-9.114E-05	1.108E-03				
600.400	502.904	3731.565	12965.769	-6.744E-05	1.100E-03				
601.400	502.782	3731.742	13468.528	-8.142E-05	9.989E-04				
602.400	502.831	3731.928	13971.370	-9.782E-05	1.099E-03				
603.400	502.894	3732.226	14474.236	-8.385E-05	1.052E-03				
604.400	503.021	3732.426	14977.160	-8.446E-05	1.040E-03				
605.400	502.836	3732.600	15479.986	-8.081E-05	1.098E-03				
606.400	502.734	3732.781	15982.759	-7.838E-05	1.089E-03				
607.400	502.811	3732.985	16485.565	-7.413E-05	1.088E-03				
608.400	502.850	3733.164	16988.388	-1.063E-04	1.091E-03				
609.400	502.826	3733.355	17491.179	-8.749E-05	1.057E-03				
610.400	502.816	3733.479	17994.022	-8.628E-05	1.035E-03				
611.400	502.991	3733.666	18496.861	-8.871E-05	1.007E-03				
612.400	502.831	3733.834	18999.657	-1.009E-04	1.162E-03				
613.400	502.787	3734.000	19502.459	-7.716E-05	1.005E-03				
614.400	502.909	3734.150	20005.293	-6.866E-05	1.091E-03				
615.400	502.695	3734.310	20508.101	-8.324E-05	1.112E-03				
616.400	502.855	3734.471	21010.958	-8.871E-05	1.032E-03				
617.400	502.758	3734.634	21513.762	-8.810E-05	1.098E-03				
618.400	502.821	3734.797	22016.657	-8.020E-05	9.521E-04				
619.400	502.773	3734.919	22519.478	-8.081E-05	1.050E-03				
620.400	502.719	3735.062	23022.207	-6.684E-05	1.069E-03				
621.400	502.787	3735.239	23524.929	-8.020E-05	9.788E-04				
622.400	502.792	3735.368	24027.704	-7.534E-05	9.709E-04				
623.400	502.972	3735.512	24530.491	-7.473E-05	9.922E-04				
624.400	502.846	3735.660	25033.297	-6.805E-05	1.052E-03				
625.400	502.802	3735.806	25536.085	-8.871E-05	1.030E-03				
626.400	502.860	3735.900	26038.836	-6.987E-05	1.078E-03				
627.400	502.918	3736.030	26541.630	-8.142E-05	9.843E-04				
628.400	502.846	3736.184	27044.453	-7.838E-05	1.089E-03				
629.400	502.666	3736.301	27547.184	-6.987E-05	1.080E-03				
630.400	502.884	3736.431	28049.980	-8.385E-05	1.120E-03				
631.400	502.831	3736.589	28552.801	-7.230E-05	1.031E-03				
632.000	502.724	3736.650	28854.469	-7.230E-05	1.139E-03				
632.200	3.340	3703.996	28855.137	-8.203E-05	1.023E-03				
632.600	3.029	3703.549	28856.379	-7.716E-05	1.124E-03				
633.400	2.927	3703.028	28858.734	-7.534E-05	1.084E-03				
634.400	2.961	3702.545	28861.618	-6.805E-05	9.697E-04				
635.400	2.990	3702.108	28864.620	-8.385E-05	1.165E-03				
636.400	2.927	3701.730	28867.546	-9.235E-05	1.092E-03				
637.400	2.732	3701.420	28870.441	-7.291E-05	1.202E-03				
638.400	2.971	3701.143	28873.377	-7.838E-05	1.073E-03				
639.400	2.903	3700.847	28876.287	-9.296E-05	1.012E-03				
640.400	2.956	3700.602	28879.200	-6.319E-05	1.188E-03				
641.400	2.898	3700.408	28882.126	-8.992E-05	1.100E-03				
642.400	2.776	3700.166	28885.036	-7.960E-05	9.965E-04				
643.400	2.966	3699.988	28887.953	-8.506E-05	1.123E-03				
644.400	2.946	3699.844	28890.900	-8.810E-05	1.060E-03				
645.400	3.024	3699.679	28893.871	-7.899E-05	1.117E-03				
646.400	2.927	3699.526	28896.767	-8.263E-05	1.153E-03				
647.400	2.825	3699.378	28899.714	-8.506E-05	1.000E-03				
648.400	2.854	3699.211	28902.620	-7.048E-05	1.021E-03				
649.400	3.034	3699.091	28905.575	-7.291E-05	9.934E-04				
650.400	3.102	3699.031	28908.510	-8.385E-05	1.012E-03				
651.400	2.815	3698.882	28911.427	-7.170E-05	9.521E-04				
652.400	3.005	3698.786	28914.316	-8.506E-05	1.063E-03				
653.400	3.010	3698.664	28917.255	-8.203E-05	1.083E-03				
654.400	2.878	3698.568	28920.135	-6.805E-05	1.021E-03				
655.400	2.966	3698.498	28923.052	-6.623E-05	1.068E-03				
656.400	3.068	3698.379	28925.974	-9.418E-05	1.033E-03				
657.400	2.961	3698.332	28928.949	-8.689E-05	1.089E-03				
658.400	2.835	3698.241	28931.807	-6.805E-05	9.612E-04				
659.400	3.063	3698.146	28934.736	-8.020E-05	1.125E-03				
660.400	3.068	3698.139	28937.681	-9.235E-05	1.114E-03				
661.400	3.039	3698.007	28940.657	-8.081E-05	1.125E-03				
662.400	3.024	3698.000	28943.602	-8.446E-05	1.080E-03				
663.400	3.044	3697.927	28946.581	-7.595E-05	1.131E-03				
664.400	2.971	3697.871	28949.574	-7.473E-05	1.049E-03				
665.400	2.937	3697.815	28952.560	-6.987E-05	1.122E-03				
666.400	2.800	3697.768	28955.387	-6.319E-05	1.152E-03				
667.400	2.956	3697.728	28958.296	-8.081E-05	1.145E-03				
668.400	3.053	3697.654	28961.176	-7.352E-05	1.089E-03				
669.400	3.034	3697.583	28964.098	-7.048E-05	1.026E-03				
670.400	2.815	3697.598	28967.007	-8.385E-05	1.073E-03				
671.400	2.873	3697.551	28969.852	-8.142E-05	9.746E-04				
672.400	2.917	3697.513	28972.731	-7.534E-05	1.069E-03				
673.400	2.830	3697.398	28975.605	-6.987E-05	1.030E-03				
674.400	2.941	3697.407	28978.544	-9.114E-05	1.058E-03				
675.400	2.820	3697.378	28981.482	-8.749E-05	9.193E-04				
676.400	2.869	3697.328	28984.465	-9.418E-05	1.001E-03				
677.400	2.796	3697.334	28987.408	-5.894E-05	1.062E-03				
678.400	2.917	3697.248	28990.286	-7.352E-05	1.067E-03				
679.400	2.903	3697.222	28993.265	-7.413E-05	1.068E-03				
680.400	2.883	3697.207	28996.147	-6.258E-05	1.032E-03				
681.400	2.854	3697.196	28999.056	-6.501E-05	1.035E-03				
682.400	3.102	3697.179	29002.029	-7.534E-05	1.048E-03				
683.400	2.796	3697.179	29004.976	-6.744E-05	1.051E-03				
684.400	3.010	3697.151	29007.908	-8.263E-05	1.064E-03				
685.400	2.796	3697.100	29010.817	-8.203E-05	1.037E-03				
686.400	2.903	3697.027	29013.731	-7.230E-05	1.116E-03				
687.400	2.776	3697.026	29016.562	-8.689E-05	1.102E-03				
688.400	2.747	3697.024	29019.381	-6.197E-05	1.095E-03				
689.400	2.752	3697.016	29022.146	-6.319E-05	1.178E-03				
690.400	2.903	3696.961	29025.036	-7.170E-05	1.100E-03				
691.400	2.995	3696.970	29027.925	-7.534E-05	1.216E-03				
692.400	2.849	3696.979	29030.787	-6.137E-05	1.091E-03				
693.400	2.869	3696.928	29033.693	-8.567E-05	1.013E-03				
694.400	3.063	3696.896	29036.627	-9.053E-05	1.055E-03				
695.400	2.907	3696.872	29039.528	-7.230E-05	1.032E-03				
696.400	2.956	3696.867	29042.477	-7.534E-05	1.077E-03				
697.400	2.946	3696.886	29045.456	-7.777E-05	1.059E-03				
698.400	2.937	3696.876	29048.344	-8.142E-05	1.131E-03				
699.400	2.941	3696.815	29051.254	-6.137E-05	1.114E-03				
700.400	2.883	3696.799	29054.165	-7.595E-05	1.043E-03				
701.400	2.825	3696.803	29057.028	-7.413E-05	9.849E-04				
702.400	2.883	3696.787	29059.929	-5.954E-05	1.023E-03				
703.400	2.859	3696.775	29062.862	-5.347E-05	1.051E-03				
704.400	3.010	3696.774	29065.802	-7.777E-05	1.066E-03				
705.400	2.859	3696.763	29068.714	-7.777E-05	1.063E-03				
706.400	2.878	3696.785	29071.560	-7.716E-05	1.007E-03				
707.400	3.019	3696.751	29074.524	-8.446E-05	1.134E-03				
708.400	2.888	3696.689	29077.463	-9.175E-05	1.088E-03				
709.400	2.976	3696.654	29080.370	-7.291E-05	1.051E-03				
710.400	3.053	3696.726	29083.261	-6.987E-05	1.168E-03				
711.400	3.005	3696.667	29086.306	-8.203E-05	1.009E-03				
712.400	2.766	3696.660	29089.214	-8.446E-05	1.071E-03				
713.400	2.932	3696.638	29092.161	-5.468E-05	9.965E-04				
714.400	2.980	3696.674	29095.064	-6.380E-05	1.222E-03				
715.400	3.019	3696.672	29097.982	-6.501E-05	1.133E-03				
716.400	2.898	3696.649	29100.956	-8.567E-05	1.106E-03				
717.400	2.830	3696.636	29103.832	-7.716E-05	1.131E-03				
718.400	2.932	3696.643	29106.766	-8.020E-05	1.084E-03				
719.400	2.883	3696.644	29109.730	-6.987E-05	1.092E-03				
720.400	3.014	3696.629	29112.652	-7.109E-05	1.055E-03				
721.400	2.961	3696.629	29115.629	-7.838E-05	1.051E-03				
722.400	2.869	3696.611	29118.567	-7.777E-05	1.186E-03				
723.400	2.966	3696.584	29121.477	-6.441E-05	1.054E-03				
724.400	2.878	3696.559	29124.393	-7.716E-05	1.009E-03				
725.400	3.005	3696.580	29127.338	-8.324E-05	1.094E-03				
726.400	2.985	3696.573	29130.304	-7.473E-05	1.022E-03				
727.400	2.805	3696.572	29133.236	-7.838E-05	1.032E-03				
728.400	2.830	3696.542	29136.126	-6.562E-05	1.064E-03				
729.400	2.917	3696.570	29139.071	-7.960E-05	1.140E-03				
730.400	2.854	3696.516	29141.903	-8.810E-05	1.071E-03				
731.400	2.849	3696.535	29144.777	-6.987E-05	1.159E-03				
732.400	2.854	3696.505	29147.707	-7.656E-05	9.965E-04				
733.400	2.835	3696.543	29150.589	-7.777E-05	1.083E-03				
734.400	2.747	3696.498	29153.416	-7.048E-05	1.031E-03				
735.400	2.912	3696.521	29156.311	-7.838E-05	9.703E-04				
736.400	2.854	3696.512	29159.180	-7.413E-05	1.069E-03				
737.400	2.995	3696.533	29162.081	-7.291E-05	9.685E-04				
738.400	2.854	3696.510	29164.989	-7.413E-05	1.156E-03				
739.400	2.757	3696.518	29167.814	-8.263E-05	1.111E-03				
740.400	2.728	3696.515	29170.551	-9.235E-05	1.040E-03				
741.400	2.825	3696.481	29173.349	-8.324E-05	1.043E-03				
742.400	2.791	3696.502	29176.159	-7.352E-05	1.065E-03				
743.400	2.941	3696.465	29179.039	-8.263E-05	1.209E-03				
744.400	3.029	3696.484	29181.900	-7.595E-05	1.142E-03				
745.400	2.864	3696.477	29184.729	-7.109E-05	1.068E-03				
746.400	2.907	3696.458	29187.681	-7.534E-05	1.059E-03				
747.400	2.835	3696.455	29190.567	-8.932E-05	1.087E-03				
748.400	2.976	3696.434	29193.541	-7.838E-05	1.095E-03				
749.400	2.805	3696.461	29196.392	-8.567E-05	1.071E-03				
750.400	2.869	3696.431	29199.287	-8.081E-05	1.075E-03				
751.400	2.937	3696.455	29202.166	-8.020E-05	1.029E-03				
752.000	3.019	3696.410	29203.960	-8.689E-05	1.078E-03				
752.200	-496.702	3663.685	29104.620	-7.170E-05	1.088E-03				
752.600	-497.033	3663.211	28905.827	-9.053E-05	1.066E-03				
753.400	-497.035	3662.579	28508.238	-6.927E-05	1.044E-03				
754.400	-496.987	3661.916	28011.211	-8.203E-05	1.069E-03				
755.400	-497.035	3661.388	27514.175	-7.048E-05	9.813E-04				
756.400	-497.111	3660.884	27017.185	-8.142E-05	1.063E-03				
757.400	-497.211	3660.366	26520.079	-8.506E-05	1.026E-03				
758.400	-497.014	3659.945	26023.054	-9.175E-05	1.111E-03				
759.400	-497.106	3659.559	25525.972	-8.506E-05	1.037E-03				
760.400	-497.167	3659.127	25028.839	-8.810E-05	9.971E-04				
761.400	-497.116	3658.810	24531.734	-7.838E-05	1.079E-03				
762.400	-497.206	3658.455	24034.550	-7.777E-05	1.056E-03				
763.400	-497.147	3658.116	23537.395	-8.324E-05	1.051E-03				
764.400	-497.123	3657.796	23040.237	-9.235E-05	1.074E-03				
765.400	-497.327	3657.546	22543.039	-5.711E-05	1.102E-03				
766.400	-497.364	3657.211	22045.765	-6.866E-05	1.070E-03				
767.400	-497.317	3656.943	21548.548	-8.992E-05	9.618E-04				
768.400	-497.133	3656.688	21051.409	-8.324E-05	1.148E-03				
769.400	-497.159	3656.447	20554.195	-6.623E-05	1.139E-03				
770.400	-497.198	3656.173	20057.043	-9.175E-05	1.112E-03				
771.400	-497.203	3655.949	19559.858	-7.413E-05	1.097E-03				
772.400	-497.198	3655.715	19062.759	-7.413E-05	1.058E-03				
773.400	-497.099	3655.481	18565.622	-7.473E-05	1.068E-03				
774.400	-497.181	3655.216	18068.548	-6.866E-05	1.170E-03				
775.400	-496.941	3655.021	17571.541	-8.446E-05	1.041E-03				
776.400	-496.982	3654.832	17074.471	-9.114E-05	1.036E-03				
777.400	-497.116	3654.590	16577.414	-7.716E-05	1.078E-03				
778.400	-497.133	3654.424	16080.322	-6.805E-05	1.034E-03				
779.400	-497.111	3654.211	15583.176	-7.716E-05	1.083E-03				
780.400	-496.989	3653.996	15086.083	-6.987E-05	1.149E-03				
781.400	-497.072	3653.877	14588.943	-7.656E-05	1.048E-03				
782.400	-497.035	3653.690	14091.815	-7.899E-05	1.060E-03				
783.400	-497.043	3653.500	13594.696	-5.590E-05	1.034E-03				
784.400	-497.266	3653.339	13097.620	-7.413E-05	9.667E-04				
785.400	-497.123	3653.155	12600.470	-7.352E-05	1.060E-03				
786.400	-497.186	3652.978	12103.273	-8.385E-05	1.128E-03				
787.400	-497.113	3652.825	11606.137	-9.296E-05	1.042E-03				
788.400	-497.043	3652.634	11108.992	-6.562E-05	1.063E-03				
789.400	-497.159	3652.505	10611.897	-6.927E-05	1.102E-03				
790.400	-497.223	3652.351	10114.740	-7.109E-05	1.006E-03				
791.400	-497.016	3652.233	9617.658	-7.838E-05	1.090E-03				
792.400	-497.125	3652.082	9120.526	-7.595E-05	9.794E-04				
793.400	-497.130	3651.905	8623.426	-7.716E-05	9.965E-04				
794.400	-497.111	3651.750	8126.361	-8.263E-05	1.023E-03				
795.400	-497.082	3651.630	7629.242	-5.711E-05	1.150E-03				
796.400	-497.038	3651.489	7132.174	-6.441E-05	1.057E-03				
797.400	-497.065	3651.302	6635.055	-6.562E-05	1.078E-03				
798.400	-497.181	3651.175	6137.972	-8.324E-05	1.032E-03				
799.400	-497.162	3651.000	5640.781	-5.286E-05	1.070E-03				
800.400	-497.028	3650.877	5143.699	-7.656E-05	1.066E-03				
801.400	-497.099	3650.787	4646.552	-8.263E-05	1.024E-03				
802.400	-497.018	3650.685	4149.473	-6.987E-05	1.098E-03				
803.400	-497.240	3650.516	3652.333	-6.805E-05	9.952E-04				
804.400	-497.031	3650.396	3155.200	-7.656E-05	1.112E-03				
805.400	-497.099	3650.213	2658.012	-7.777E-05	1.074E-03				
806.000	-497.074	3650.206	2359.768	-8.203E-05	1.089E-03				
806.200	2.324	3682.933	2360.233	-6.866E-05	1.133E-03				
806.600	2.674	3683.315	2361.284	-7.230E-05	1.080E-03				
807.400	2.941	3683.861	2363.541	-7.899E-05	1.064E-03				
808.400	2.742	3684.375	2366.400	-6.623E-05	1.020E-03				
809.400	2.820	3684.814	2369.248	-8.871E-05	1.057E-03				
810.400	2.805	3685.203	2372.027	-7.595E-05	1.034E-03				
811.400	2.951	3685.486	2374.909	-6.137E-05	1.118E-03				
812.400	2.776	3685.788	2377.739	-8.567E-05	1.072E-03				
813.400	2.815	3686.029	2380.601	-7.838E-05	1.052E-03				
814.400	2.903	3686.274	2383.454	-6.137E-05	1.056E-03				
815.400	2.873	3686.507	2386.301	-6.987E-05	1.147E-03				
816.400	2.742	3686.702	2389.213	-7.230E-05	1.064E-03				
817.400	2.839	3686.906	2392.049	-8.871E-05	1.095E-03				
818.400	2.796	3687.090	2394.966	-8.810E-05	1.140E-03				
819.400	2.898	3687.238	2397.858	-6.258E-05	1.077E-03				
820.400	2.941	3687.390	2400.757	-7.230E-05	1.034E-03				
821.400	2.820	3687.546	2403.597	-9.661E-05	1.184E-03				
822.400	2.927	3687.675	2406.454	-6.380E-05	1.134E-03				
823.400	2.762	3687.792	2409.339	-7.352E-05	1.044E-03				
824.400	2.839	3687.904	2412.188	-6.076E-05	1.115E-03				
825.400	2.830	3688.047	2414.968	-6.927E-05	1.063E-03				
826.400	2.805	3688.125	2417.765	-7.899E-05	1.019E-03				
827.400	2.805	3688.192	2420.674	-7.473E-05	1.000E-03				
828.400	2.786	3688.331	2423.471	-8.142E-05	1.135E-03				
829.400	2.835	3688.412	2426.322	-8.324E-05	1.077E-03				
830.400	2.781	3688.511	2429.186	-8.385E-05	1.071E-03				
831.400	2.771	3688.581	2432.047	-6.866E-05	1.032E-03				
832.400	2.776	3688.680	2434.865	-8.203E-05	1.148E-03				
833.400	3.019	3688.740	2437.761	-7.534E-05	1.046E-03				
834.400	2.869	3688.843	2440.675	-8.385E-05	9.248E-04				
835.400	2.839	3688.911	2443.595	-8.628E-05	1.105E-03				
836.400	2.742	3688.970	2446.387	-6.258E-05	9.248E-04				
837.400	2.937	3688.998	2449.199	-7.473E-05	1.185E-03				
838.400	2.815	3689.058	2452.005	-8.263E-05	9.837E-04				
839.400	2.698	3689.109	2454.753	-6.258E-05	1.105E-03				
840.400	2.932	3689.201	2457.597	-7.656E-05	1.033E-03				
841.400	2.927	3689.214	2460.486	-8.020E-05	9.886E-04				
842.400	3.024	3689.275	2463.328	-7.777E-05	1.071E-03				
843.400	2.825	3689.325	2466.246	-7.109E-05	9.722E-04				
844.400	2.854	3689.340	2469.088	-9.418E-05	1.001E-03				
845.400	2.990	3689.394	2471.900	-7.048E-05	1.157E-03				
846.400	2.849	3689.448	2474.739	-6.137E-05	1.033E-03				
847.400	2.917	3689.481	2477.571	-7.777E-05	1.097E-03				
848.400	2.854	3689.514	2480.427	-8.871E-05	1.126E-03				
849.400	2.873	3689.559	2483.326	-7.048E-05	1.140E-03				
850.400	2.893	3689.609	2486.188	-7.352E-05	1.112E-03				
851.400	2.854	3689.605	2489.100	-7.048E-05	1.022E-03				
852.400	2.873	3689.658	2491.956	-6.623E-05	1.115E-03				
853.400	2.849	3689.703	2494.837	-7.534E-05	1.054E-03				
854.400	2.825	3689.759	2497.726	-6.562E-05	1.081E-03				
855.400	2.689	3689.770	2500.496	-6.866E-05	1.047E-03				
856.400	2.912	3689.805	2503.346	-8.324E-05	1.053E-03				
857.400	2.771	3689.848	2506.152	-7.534E-05	1.019E-03				
858.400	2.888	3689.853	2508.934	-6.927E-05	1.227E-03				
859.400	2.742	3689.878	2511.772	-8.628E-05	1.007E-03				
860.400	2.985	3689.930	2514.653	-7.230E-05	1.029E-03				
861.400	2.961	3689.952	2517.562	-7.777E-05	1.139E-03				
862.400	2.830	3689.947	2520.451	-7.838E-05	1.068E-03				
863.400	2.781	3689.938	2523.247	-8.567E-05	1.088E-03				
864.400	2.776	3689.988	2526.091	-6.623E-05	1.083E-03				
865.400	2.873	3689.988	2528.931	-6.684E-05	1.052E-03				
866.400	3.039	3690.027	2531.878	-6.684E-05	1.083E-03				
867.400	2.888	3690.072	2534.828	-7.716E-05	1.023E-03				
868.400	3.141	3690.077	2537.752	-8.263E-05	1.071E-03				
869.400	2.864	3690.077	2540.692	-6.805E-05	1.071E-03				
870.400	2.820	3690.106	2543.551	-7.230E-05	9.788E-04				
871.400	2.786	3690.117	2546.424	-8.932E-05	1.208E-03				
872.400	2.771	3690.141	2549.285	-8.810E-05	1.006E-03				
873.400	2.941	3690.176	2552.277	-7.352E-05	1.078E-03				
874.400	2.971	3690.172	2555.178	-7.777E-05	1.057E-03				
875.400	2.859	3690.213	2557.977	-5.408E-05	1.146E-03				
876.400	2.820	3690.239	2560.887	-6.562E-05	1.091E-03				
877.400	2.713	3690.244	2563.697	-1.015E-04	1.131E-03				
878.400	3.034	3690.238	2566.549	-6.076E-05	1.141E-03				
879.400	2.966	3690.260	2569.434	-8.871E-05	1.034E-03				
880.400	2.980	3690.274	2572.298	-8.324E-05	1.134E-03				
881.400	2.844	3690.291	2575.230	-7.413E-05	1.022E-03				
882.400	2.742	3690.285	2578.053	-6.623E-05	1.111E-03				
883.400	2.898	3690.313	2580.896	-9.296E-05	1.060E-03				
884.400	2.757	3690.280	2583.640	-7.960E-05	1.035E-03				
885.400	3.010	3690.336	2586.563	-7.230E-05	1.065E-03				
886.400	2.898	3690.361	2589.490	-6.805E-05	1.047E-03				
887.400	2.951	3690.368	2592.336	-8.689E-05	1.116E-03				
888.400	2.849	3690.393	2595.190	-6.805E-05	9.442E-04				
889.400	2.932	3690.381	2598.034	-9.114E-05	1.126E-03				
890.400	2.854	3690.396	2600.878	-7.838E-05	9.436E-04				
891.400	2.723	3690.381	2603.676	-7.230E-05	1.022E-03				
892.400	2.839	3690.440	2606.544	-5.529E-05	1.099E-03				
893.400	2.917	3690.401	2609.431	-7.473E-05	9.910E-04				
894.400	2.854	3690.434	2612.212	-7.960E-05	1.109E-03				
895.400	2.786	3690.425	2615.017	-6.137E-05	1.032E-03				
896.400	2.907	3690.454	2617.918	-7.230E-05	1.100E-03				
897.400	2.961	3690.475	2620.797	-8.628E-05	1.118E-03				
898.400	2.912	3690.486	2623.708	-9.114E-05	1.055E-03				
899.400	2.800	3690.498	2626.556	-6.684E-05	1.021E-03				
900.400	2.766	3690.504	2629.348	-8.628E-05	1.035E-03				
901.400	2.820	3690.498	2632.153	-7.291E-05	1.049E-03				
902.400	2.830	3690.502	2634.956	-8.689E-05	1.081E-03				
903.400	2.708	3690.484	2637.663	-8.506E-05	9.892E-04				
904.400	2.776	3690.538	2640.573	-7.777E-05	1.191E-03				
905.400	2.820	3690.494	2643.320	-7.109E-05	1.114E-03				
906.400	2.718	3690.534	2646.103	-6.744E-05	1.085E-03				
907.400	2.732	3690.492	2648.945	-7.291E-05	1.140E-03				
908.400	2.820	3690.561	2651.757	-7.230E-05	1.030E-03				
909.400	2.815	3690.546	2654.562	-7.595E-05	1.120E-03				
910.400	2.966	3690.556	2657.460	-7.656E-05	1.034E-03				
911.400	2.810	3690.554	2660.347	-6.927E-05	1.105E-03				
912.400	2.825	3690.589	2663.171	-7.595E-05	9.606E-04				
913.400	2.971	3690.598	2666.049	-7.170E-05	9.861E-04				
914.400	2.990	3690.606	2669.016	-6.501E-05	1.106E-03				
915.400	2.747	3690.611	2671.757	-5.711E-05	1.059E-03				
916.400	2.873	3690.624	2674.621	-8.446E-05	1.091E-03				
917.400	2.917	3690.603	2677.493	-7.838E-05	1.049E-03				
918.400	2.825	3690.616	2680.409	-8.263E-05	1.193E-03				
919.400	2.815	3690.632	2683.259	-8.263E-05	9.558E-04				
920.400	2.766	3690.616	2686.155	-8.992E-05	1.058E-03				
921.400	2.927	3690.626	2689.070	-7.473E-05	1.034E-03				
922.400	2.873	3690.622	2691.968	-8.446E-05	1.106E-03				
923.400	2.791	3690.637	2694.803	-7.352E-05	1.010E-03				
924.400	2.621	3690.685	2697.613	-8.385E-05	1.083E-03				
925.400	2.873	3690.659	2700.362	-7.109E-05	1.026E-03				
926.000	3.014	3690.680	2702.103	-6.258E-05	9.667E-04				
926.200	1251.316	3772.489	2952.366	-7.352E-05	1.081E-03				
926.600	1252.235	3773.605	3453.252	-7.656E-05	1.122E-03				
927.200	1252.390	3774.894	4204.679	-9.053E-05	1.089E-03				
927.800	1252.556	3775.899	4956.179	-7.230E-05	9.782E-04				
928.600	1252.536	3777.112	5958.219	-8.081E-05	9.989E-04				
929.400	1252.619	3778.191	6960.278	-9.965E-05	1.070E-03				
930.400	1252.560	3779.421	8212.909	-8.385E-05	1.105E-03				
931.400	1252.614	3780.512	9465.473	-8.020E-05	1.116E-03				
932.400	1252.838	3781.568	10718.208	-1.009E-04	1.157E-03				
933.400	1252.697	3782.521	11970.868	-9.053E-05	1.048E-03				
934.400	1252.672	3783.438	13223.537	-9.539E-05	1.154E-03				
935.400	1252.701	3784.274	14476.288	-7.170E-05	1.006E-03				
936.400	1252.784	3785.064	15728.968	-8.749E-05	1.065E-03				
937.400	1252.731	3785.874	16981.707	-7.595E-05	1.062E-03				
938.400	1252.672	3786.613	18234.369	-8.446E-05	1.040E-03				
939.400	1252.794	3787.302	19487.171	-8.324E-05	1.155E-03				
940.400	1252.585	3787.957	20739.904	-9.357E-05	9.855E-04				
941.400	1252.692	3788.581	21992.619	-8.871E-05	1.123E-03				
942.400	1252.862	3789.206	23245.306	-5.894E-05	1.018E-03				
943.400	1252.599	3789.753	24497.972	-7.291E-05	9.965E-04				
944.400	1252.658	3790.382	25750.635	-7.595E-05	1.053E-03				
945.400	1252.585	3790.922	27003.296	-7.899E-05	1.006E-03				
946.400	1252.565	3791.443	28255.890	-7.716E-05	1.050E-03				
947.400	1252.643	3791.956	29508.516	-7.716E-05	1.161E-03				
947.600	1252.648	3792.094	29759.047	-6.562E-05	1.073E-03				
947.800	3.904	3710.627	29759.827	-6.684E-05	9.886E-04				
948.200	3.053	3709.676	29761.122	-6.987E-05	9.776E-04				
949.000	2.864	3708.508	29763.512	-6.562E-05	1.007E-03				
950.000	2.903	3707.450	29766.417	-8.385E-05	9.934E-04				
951.000	2.786	3706.576	29769.232	-6.805E-05	1.063E-03				
952.000	2.995	3705.857	29772.137	-5.408E-05	1.005E-03				
953.000	2.883	3705.260	29775.053	-7.534E-05	1.015E-03				
954.000	2.869	3704.673	29778.038	-8.567E-05	1.082E-03				
955.000	2.980	3704.204	29781.023	-8.324E-05	1.034E-03				
956.000	2.898	3703.719	29783.957	-7.656E-05	1.128E-03				
957.000	3.010	3703.324	29786.943	-9.418E-05	1.028E-03				
958.000	2.869	3702.965	29789.902	-8.992E-05	1.091E-03				
959.000	2.985	3702.598	29792.864	-7.352E-05	1.083E-03				
960.000	2.708	3702.278	29795.752	-7.899E-05	1.109E-03				
961.000	2.995	3701.984	29798.738	-8.749E-05	1.053E-03				
962.000	3.092	3701.709	29801.731	-7.413E-05	1.066E-03				
963.000	3.048	3701.479	29804.754	-6.927E-05	1.040E-03				
964.000	2.907	3701.209	29807.621	-6.197E-05	9.697E-04				
965.000	2.912	3700.959	29810.535	-8.324E-05	1.185E-03				
966.000	2.864	3700.795	29813.406	-7.595E-05	1.079E-03				
967.000	2.732	3700.568	29816.187	-6.623E-05	1.113E-03				
968.000	2.976	3700.391	29819.057	-7.899E-05	1.081E-03				
969.000	2.645	3700.224	29821.875	-7.352E-05	1.105E-03				
970.000	2.985	3700.071	29824.728	-8.020E-05	1.071E-03				
971.000	2.742	3699.937	29827.553	-6.441E-05	1.214E-03				
972.000	2.883	3699.772	29830.397	-8.567E-05	1.015E-03				
973.000	2.830	3699.646	29833.256	-8.081E-05	1.138E-03				
974.000	2.757	3699.509	29836.142	-7.230E-05	1.075E-03				
975.000	2.786	3699.355	29839.022	-6.805E-05	1.089E-03				
976.000	3.014	3699.270	29841.976	-7.960E-05	1.088E-03				
977.000	2.971	3699.160	29844.872	-6.258E-05	1.045E-03				
978.000	2.985	3699.074	29847.784	-6.076E-05	1.142E-03				
979.000	2.859	3698.980	29850.712	-7.595E-05	1.030E-03				
980.000	2.990	3698.883	29853.615	-7.473E-05	1.043E-03				
981.000	2.941	3698.767	29856.499	-8.506E-05	1.131E-03				
982.000	2.859	3698.680	29859.344	-6.319E-05	9.393E-04				
983.000	2.903	3698.638	29862.246	-9.175E-05	1.148E-03				
984.000	3.034	3698.549	29865.246	-8.932E-05	9.703E-04				
985.000	2.839	3698.474	29868.183	-7.109E-05	1.060E-03				
986.000	2.932	3698.402	29871.090	-7.716E-05	1.139E-03				
987.000	2.985	3698.312	29874.014	-8.446E-05	1.031E-03				
988.000	2.941	3698.264	29876.890	-7.656E-05	1.071E-03				
989.000	2.849	3698.202	29879.757	-8.810E-05	1.085E-03				
990.000	2.830	3698.149	29882.584	-6.744E-05	1.066E-03				
991.000	2.849	3698.072	29885.418	-6.623E-05	1.128E-03				
992.000	2.907	3698.051	29888.306	-7.230E-05	1.005E-03				
993.000	2.835	3697.981	29891.201	-7.048E-05	1.079E-03				
994.000	2.766	3697.932	29893.999	-8.385E-05	1.124E-03				
995.000	3.048	3697.858	29896.887	-7.291E-05	1.029E-03				
996.000	2.869	3697.821	29899.834	-8.446E-05	1.081E-03				
997.000	2.859	3697.770	29902.710	-5.772E-05	1.097E-03				
998.000	3.044	3697.801	29905.611	-5.894E-05	1.077E-03				
999.000	2.927	3697.717	29908.575	-7.595E-05	1.144E-03				
1000.000	2.800	3697.651	29911.404	-6.441E-05	1.176E-03				
1001.000	2.907	3697.688	29914.200	-7.048E-05	1.006E-03				
1002.000	3.010	3697.602	29917.118	-7.473E-05	1.013E-03				
1003.000	2.791	3697.592	29919.991	-7.109E-05	1.123E-03				
1004.000	2.835	3697.561	29922.802	-5.954E-05	9.460E-04				
1005.000	2.810	3697.539	29925.611	-8.628E-05	1.091E-03				
1006.000	2.679	3697.486	29928.381	-8.324E-05	1.000E-03				
1007.000	2.723	3697.465	29931.118	-7.352E-05	1.038E-03				
1008.000	2.839	3697.462	29933.950	-7.473E-05	1.055E-03				
1009.000	2.810	3697.409	29936.834	-9.296E-05	9.491E-04				
1010.000	3.000	3697.380	29939.781	-8.203E-05	1.092E-03				
1011.000	2.883	3697.359	29942.726	-5.590E-05	1.038E-03				
1012.000	2.893	3697.349	29945.591	-8.203E-05	1.051E-03				
1013.000	2.728	3697.316	29948.448	-8.203E-05	1.072E-03				
1014.000	2.820	3697.279	29951.366	-5.468E-05	1.072E-03				
1015.000	2.742	3697.301	29954.237	-9.296E-05	1.109E-03				
1016.000	2.757	3697.261	29957.056	-9.296E-05	1.115E-03				
1017.000	2.917	3697.227	29959.898	-7.352E-05	1.140E-03				
1018.000	2.898	3697.257	29962.732	-6.866E-05	1.118E-03				
1019.000	3.000	3697.226	29965.626	-7.595E-05	1.111E-03				
1020.000	2.835	3697.203	29968.493	-6.380E-05	1.046E-03				
1021.000	2.951	3697.182	29971.376	-9.600E-05	1.102E-03				
1022.000	3.029	3697.140	29974.285	-8.142E-05	1.040E-03				
1023.000	2.766	3697.177	29977.125	-8.446E-05	1.142E-03				
1024.000	2.752	3697.129	29979.952	-7.960E-05	1.151E-03				
1025.000	2.932	3697.123	29982.838	-7.656E-05	1.016E-03				
1026.000	3.029	3697.137	29985.800	-7.656E-05	1.134E-03				
1027.000	2.912	3697.075	29988.720	-6.866E-05	1.014E-03				
1028.000	2.990	3697.090	29991.674	-6.623E-05	1.089E-03				
1029.000	2.878	3697.069	29994.583	-7.109E-05	1.020E-03				
1030.000	2.839	3697.052	29997.408	-6.441E-05	1.054E-03				
1031.000	2.898	3697.011	30000.292	-7.716E-05	1.000E-03				
1032.000	2.898	3697.059	30003.254	-8.263E-05	1.106E-03				
1033.000	2.757	3696.989	30006.104	-7.473E-05	1.034E-03				
1034.000	2.912	3697.026	30009.039	-5.651E-05	9.624E-04				
1035.000	2.888	3696.982	30011.997	-7.595E-05	9.855E-04				
1036.000	2.932	3696.976	30014.872	-7.534E-05	1.054E-03				
1037.000	2.854	3696.968	30017.738	-8.506E-05	1.084E-03				
1038.000	2.927	3696.971	30020.647	-7.534E-05	1.090E-03				
1039.000	3.073	3696.932	30023.613	-6.501E-05	1.156E-03				
1040.000	2.737	3696.943	30026.459	-7.960E-05	1.133E-03				
1041.000	2.810	3696.912	30029.442	-6.805E-05	1.074E-03				
1042.000	2.883	3696.894	30032.408	-6.137E-05	1.012E-03				
1043.000	2.961	3696.915	30035.269	-8.263E-05	1.088E-03				
1044.000	2.976	3696.871	30038.197	-9.418E-05	1.116E-03				
1045.000	2.859	3696.883	30041.100	-9.053E-05	1.001E-03				
1046.000	2.854	3696.906	30043.991	-6.015E-05	1.043E-03				
1047.000	2.873	3696.887	30046.860	-7.838E-05	1.122E-03				
1048.000	2.791	3696.888	30049.723	-6.319E-05	1.104E-03				
1049.000	2.849	3696.871	30052.671	-9.600E-05	1.071E-03				
1050.000	2.903	3696.849	30055.614	-7.048E-05	1.122E-03				
1051.000	3.058	3696.864	30058.559	-6.380E-05	9.983E-04				
1052.000	3.058	3696.858	30061.539	-6.744E-05	1.094E-03				
1053.000	2.932	3696.839	30064.508	-8.446E-05	9.430E-04				
1054.000	3.068	3696.847	30067.476	-7.960E-05	1.076E-03				
1055.000	2.922	3696.784	30070.402	-7.291E-05	1.010E-03				
1056.000	2.893	3696.811	30073.318	-8.203E-05	1.114E-03				
1057.000	2.893	3696.801	30076.210	-8.628E-05	1.052E-03				
1058.000	2.941	3696.784	30079.128	-6.501E-05	1.093E-03				
1059.000	3.039	3696.773	30082.071	-7.777E-05	1.043E-03				
1060.000	2.781	3696.800	30085.026	-7.473E-05	1.057E-03				
1061.000	3.073	3696.804	30088.024	-6.501E-05	9.807E-04				
1062.000	3.092	3696.785	30091.091	-7.656E-05	1.133E-03				
1063.000	2.985	3696.783	30094.196	-7.716E-05	1.040E-03				
1064.000	3.005	3696.787	30097.162	-7.413E-05	1.055E-03				
1065.000	3.000	3696.753	30100.111	-8.324E-05	9.995E-04				
1066.000	2.898	3696.738	30103.058	-8.689E-05	1.196E-03				
1067.000	2.883	3696.747	30106.064	-6.927E-05	1.033E-03				
1067.600	2.980	3696.762	30107.817	-8.689E-05	1.098E-03				
1067.800	-1245.513	3615.143	29858.713	-5.468E-05	1.057E-03				
1068.200	-1246.483	3613.981	29360.186	-9.539E-05	1.001E-03				
1068.800	-1246.656	3612.718	28612.211	-6.866E-05	1.043E-03				
1069.400	-1246.901	3611.679	27864.126	-7.048E-05	1.162E-03				
1070.200	-1246.872	3610.438	26866.625	-6.441E-05	9.904E-04				
1071.000	-1246.850	3609.359	25869.171	-7.899E-05	1.097E-03				
1071.800	-1246.697	3608.325	24871.771	-7.109E-05	1.037E-03				
1072.800	-1246.724	3607.185	23624.939	-7.777E-05	1.103E-03				
1073.800	-1246.731	3606.107	22378.120	-6.562E-05	1.013E-03				
1074.800	-1246.894	3605.085	21131.319	-5.468E-05	1.022E-03				
1075.800	-1246.901	3604.143	19884.430	-6.197E-05	1.129E-03				
1076.800	-1246.909	3603.290	18637.516	-8.567E-05	1.126E-03				
1077.800	-1246.833	3602.463	17390.669	-6.197E-05	1.126E-03				
1078.800	-1246.772	3601.662	16143.789	-6.744E-05	1.156E-03				
1079.800	-1247.015	3600.947	14896.848	-8.749E-05	1.106E-03				
1080.800	-1246.923	3600.191	13649.936	-7.109E-05	1.122E-03				
1081.800	-1246.991	3599.486	12402.972	-8.810E-05	1.064E-03				
1082.800	-1246.814	3598.862	11156.046	-5.651E-05	1.119E-03				
1083.800	-1246.984	3598.214	9909.061	-8.020E-05	9.940E-04				
1084.800	-1246.801	3597.563	8662.207	-6.805E-05	9.308E-04				
1085.800	-1246.843	3597.047	7415.327	-7.899E-05	1.040E-03				
1086.800	-1246.918	3596.423	6168.408	-6.441E-05	1.011E-03				
1087.800	-1246.787	3595.889	4921.525	-5.651E-05	1.130E-03				
1088.800	-1246.867	3595.401	3674.624	-8.567E-05	9.697E-04				
1089.200	-1246.889	3595.177	3175.855	-8.203E-05	1.051E-03				
1089.400	1.998	3676.906	3176.255	-8.628E-05	1.041E-03				
1089.800	2.723	3677.857	3177.292	-7.595E-05	1.106E-03				
1090.600	2.946	3679.044	3179.530	-7.595E-05	1.015E-03				
1091.600	2.835	3680.106	3182.412	-8.263E-05	1.004E-03				
1092.600	2.893	3680.981	3185.288	-6.319E-05	1.105E-03				
1093.600	2.937	3681.697	3188.233	-7.838E-05	1.054E-03				
1094.600	2.873	3682.334	3191.107	-8.020E-05	1.089E-03				
1095.600	2.844	3682.861	3193.959	-8.446E-05	1.058E-03				
1096.600	2.980	3683.385	3196.878	-7.656E-05	1.039E-03				
1097.600	3.010	3683.820	3199.865	-6.684E-05	1.105E-03				
1098.600	2.898	3684.210	3202.864	-7.352E-05	1.020E-03				
1099.600	2.903	3684.589	3205.826	-7.048E-05	1.042E-03				
1100.600	3.063	3684.947	3208.787	-8.142E-05	1.084E-03				
1101.600	3.019	3685.268	3211.769	-8.992E-05	1.077E-03				
1102.600	2.907	3685.569	3214.776	-8.992E-05	1.097E-03				
1103.600	3.000	3685.827	3217.773	-7.170E-05	9.624E-04				
1104.600	2.927	3686.114	3220.737	-6.380E-05	1.082E-03				
1105.600	2.854	3686.352	3223.664	-7.352E-05	1.085E-03				
1106.600	2.907	3686.509	3226.635	-8.081E-05	1.072E-03				
1107.600	2.922	3686.786	3229.512	-8.081E-05	1.201E-03				
1108.600	2.990	3686.933	3232.441	-8.020E-05	1.137E-03				
1109.600	2.854	3687.131	3235.386	-7.656E-05	1.119E-03				
1110.600	2.971	3687.322	3238.292	-6.744E-05	1.051E-03				
1111.600	2.869	3687.496	3241.243	-6.623E-05	1.131E-03				
1112.600	2.907	3687.634	3244.185	-8.992E-05	1.122E-03				
1113.600	2.932	3687.788	3247.134	-7.716E-05	1.080E-03				
1114.600	2.966	3687.892	3250.115	-7.291E-05	1.032E-03				
1115.600	2.912	3688.004	3253.054	-7.291E-05	1.022E-03				
1116.600	3.048	3688.136	3255.996	-6.623E-05	1.039E-03				
1117.600	2.985	3688.259	3258.929	-8.446E-05	1.174E-03				
1118.600	2.883	3688.385	3261.874	-7.048E-05	9.314E-04				
1119.600	2.980	3688.491	3264.763	-8.567E-05	1.151E-03				
1120.600	2.932	3688.507	3267.654	-6.805E-05	1.062E-03				
1121.600	2.859	3688.632	3270.511	-7.960E-05	1.035E-03				
1122.600	3.053	3688.750	3273.376	-8.203E-05	1.039E-03				
1123.600	2.830	3688.860	3276.288	-8.142E-05	1.027E-03				
1124.600	2.956	3688.956	3279.136	-5.772E-05	1.018E-03				
1125.600	2.966	3689.045	3282.048	-6.927E-05	1.075E-03				
1126.600	2.805	3689.080	3284.867	-7.473E-05	9.880E-04				
1127.600	2.805	3689.162	3287.684	-8.567E-05	1.091E-03				
1128.600	2.907	3689.231	3290.624	-8.263E-05	1.080E-03				
1129.600	2.732	3689.242	3293.458	-7.473E-05	1.037E-03				
1130.600	2.932	3689.355	3296.344	-8.992E-05	1.049E-03				
1131.600	2.883	3689.403	3299.195	-6.744E-05	1.080E-03				
1132.600	2.820	3689.438	3302.020	-7.473E-05	1.069E-03				
1133.600	2.893	3689.497	3304.905	-9.235E-05	1.081E-03				
1134.600	2.883	3689.535	3307.735	-6.744E-05	1.232E-03				
1135.600	2.873	3689.564	3310.609	-7.838E-05	1.109E-03				
1136.600	2.844	3689.657	3313.468	-6.197E-05	1.160E-03				
1137.600	2.903	3689.715	3316.360	-8.203E-05	1.077E-03				
1138.600	2.961	3689.747	3319.322	-6.805E-05	1.039E-03				
1139.600	2.864	3689.760	3322.314	-8.203E-05	1.173E-03				
1140.600	2.971	3689.816	3325.205	-7.230E-05	1.074E-03				
1141.600	2.796	3689.851	3328.066	-8.992E-05	1.126E-03				
1142.600	3.053	3689.930	3330.987	-7.048E-05	1.018E-03				
1143.600	2.742	3689.902	3333.804	-8.628E-05	9.527E-04				
1144.600	2.830	3689.924	3336.648	-8.263E-05	1.097E-03				
1145.600	2.937	3690.037	3339.566	-8.020E-05	1.046E-03				
1146.600	2.951	3690.027	3342.434	-8.263E-05	1.034E-03				
1147.600	2.815	3690.078	3345.362	-7.777E-05	1.034E-03				
1148.600	2.869	3690.098	3348.335	-7.230E-05	9.570E-04				
1149.600	2.800	3690.143	3351.268	-7.473E-05	1.054E-03				
1150.600	2.912	3690.160	3354.198	-6.380E-05	9.661E-04				
1151.600	2.951	3690.199	3357.117	-7.352E-05	1.140E-03				
1152.600	2.893	3690.219	3360.074	-6.623E-05	1.038E-03				
1153.600	3.039	3690.254	3362.979	-7.230E-05	1.130E-03				
1154.600	2.980	3690.266	3365.924	-7.048E-05	1.090E-03				
1155.600	3.019	3690.268	3368.888	-7.048E-05	1.156E-03				
1156.600	3.034	3690.291	3371.872	-8.263E-05	1.020E-03				
1157.600	2.893	3690.295	3374.861	-8.020E-05	1.071E-03				
1158.600	2.825	3690.338	3377.709	-7.352E-05	1.106E-03				
1159.600	2.893	3690.336	3380.593	-6.805E-05	1.100E-03				
1160.600	2.839	3690.361	3383.425	-7.656E-05	1.043E-03				
1161.600	2.990	3690.414	3386.328	-7.473E-05	1.047E-03				
1162.600	2.796	3690.384	3389.220	-8.506E-05	1.121E-03				
1163.600	2.917	3690.452	3392.125	-7.352E-05	1.144E-03				
1164.600	2.927	3690.479	3395.059	-8.142E-05	1.117E-03				
1165.600	2.903	3690.457	3397.970	-7.656E-05	1.043E-03				
1166.600	2.849	3690.481	3400.817	-6.380E-05	1.054E-03				
1167.600	2.830	3690.518	3403.660	-8.324E-05	1.179E-03				
1168.600	2.937	3690.519	3406.604	-7.777E-05	1.124E-03				
1169.600	2.980	3690.536	3409.548	-6.319E-05	1.049E-03				
1170.600	3.039	3690.529	3412.473	-8.446E-05	1.066E-03				
1171.600	2.864	3690.558	3415.468	-6.380E-05	9.630E-04				
1172.600	3.063	3690.582	3418.498	-6.744E-05	1.080E-03				
1173.600	2.976	3690.624	3421.455	-7.109E-05	1.026E-03				
1174.600	2.961	3690.600	3424.491	-9.539E-05	1.042E-03				
1175.600	3.185	3690.652	3427.533	-8.142E-05	9.655E-04				
1176.600	3.019	3690.611	3430.531	-7.656E-05	1.172E-03				
1177.600	3.024	3690.643	3433.482	-7.960E-05	1.072E-03				
1178.600	2.937	3690.680	3436.438	-7.595E-05	1.087E-03				
1179.600	2.927	3690.676	3439.387	-8.142E-05	9.746E-04				
1180.600	2.966	3690.672	3442.424	-6.015E-05	1.034E-03				
1181.600	2.878	3690.696	3445.355	-8.324E-05	1.085E-03				
1182.600	2.878	3690.723	3448.297	-8.203E-05	9.667E-04				
1183.600	2.995	3690.718	3451.260	-6.319E-05	1.066E-03				
1184.600	2.869	3690.741	3454.185	-7.899E-05	1.027E-03				
1185.600	2.844	3690.737	3457.105	-8.203E-05	1.037E-03				
1186.600	2.893	3690.770	3460.059	-6.805E-05	1.126E-03				
1187.600	2.766	3690.792	3462.987	-8.020E-05	1.096E-03				
1188.600	3.000	3690.764	3465.878	-8.142E-05	1.162E-03				
1189.600	2.927	3690.746	3468.747	-6.015E-05	1.128E-03				
1190.600	3.039	3690.776	3471.661	-7.170E-05	1.058E-03				
1191.600	2.820	3690.777	3474.484	-8.081E-05	1.083E-03				
1192.600	2.849	3690.796	3477.363	-7.048E-05	1.088E-03				
1193.600	2.956	3690.813	3480.288	-8.324E-05	1.097E-03				
1194.600	2.912	3690.799	3483.215	-8.020E-05	1.085E-03				
1195.600	2.859	3690.829	3486.134	-8.263E-05	9.898E-04				
1196.600	2.689	3690.869	3488.984	-7.048E-05	1.092E-03				
1197.600	2.723	3690.836	3491.826	-8.506E-05	1.023E-03				
1198.600	2.946	3690.867	3494.768	-6.015E-05	1.027E-03				
1199.600	2.946	3690.889	3497.596	-9.539E-05	1.036E-03				
1200.600	2.922	3690.900	3500.565	-8.020E-05	9.916E-04				
1201.600	2.883	3690.905	3503.485	-7.960E-05	1.067E-03				
1202.600	2.869	3690.910	3506.387	-8.203E-05	9.661E-04				
1203.600	2.956	3690.867	3509.355	-6.987E-05	1.097E-03				
1204.600	2.839	3690.909	3512.250	-7.777E-05	1.055E-03				
1205.600	2.737	3690.884	3515.076	-7.230E-05	1.149E-03				
1206.600	2.888	3690.941	3518.027	-8.081E-05	1.032E-03				
1207.600	2.796	3690.914	3520.892	-6.987E-05	1.032E-03				
1208.600	2.786	3690.937	3523.796	-8.385E-05	1.119E-03				
1209.200	2.907	3690.941	3525.523	-7.413E-05	1.010E-03				
1209.400	2499.826	3853.948	4025.489	-8.081E-05	1.061E-03				
1209.600	2501.231	3855.335	4525.735	-6.684E-05	1.097E-03				
1210.000	2502.072	3857.197	5526.488	-8.385E-05	9.296E-04				
1210.400	2502.204	3858.746	6527.320	-7.899E-05	9.685E-04				
1210.800	2502.384	3860.094	7528.234	-8.992E-05	1.075E-03				
1211.200	2502.282	3861.361	8529.163	-6.805E-05	1.021E-03				
1211.600	2502.306	3862.487	9530.073	-7.838E-05	1.076E-03				
1212.000	2502.471	3863.592	10531.069	-8.203E-05	1.119E-03				
1212.400	2502.525	3864.689	11532.064	-7.048E-05	1.069E-03				
1213.000	2502.530	3866.120	13033.562	-8.142E-05	1.102E-03				
1213.600	2502.607	3867.498	14535.057	-6.684E-05	1.058E-03				
1214.200	2502.690	3868.802	16036.612	-1.039E-04	1.112E-03				
1214.800	2502.632	3870.085	17538.204	-8.506E-05	1.013E-03				
1215.400	2502.530	3871.230	19039.736	-1.003E-04	1.023E-03				
1216.000	2502.496	3872.368	20541.254	-6.623E-05	1.137E-03				
1216.600	2502.559	3873.440	22042.803	-8.385E-05	1.100E-03				
1217.200	2502.481	3874.468	23544.315	-8.932E-05	1.052E-03				
1218.000	2502.656	3875.781	25546.417	-7.716E-05	1.126E-03				
1218.800	2502.418	3877.027	27548.492	-7.109E-05	1.121E-03				
1219.600	2502.501	3878.220	29550.558	-9.114E-05	1.127E-03				
1220.000	2502.632	3878.806	30551.590	-9.661E-05	1.088E-03				
1220.200	5.110	3716.557	30552.612	-8.628E-05	9.551E-04				
1220.600	3.481	3714.866	30554.068	-9.114E-05	1.015E-03				
1221.000	3.092	3713.804	30555.325	-7.230E-05	1.078E-03				
1221.600	3.151	3712.543	30557.226	-7.109E-05	1.048E-03				
1222.200	3.044	3711.523	30559.061	-7.291E-05	1.072E-03				
1223.000	2.976	3710.477	30561.468	-9.175E-05	9.977E-04				
1224.000	2.976	3709.287	30564.434	-7.230E-05	1.070E-03				
1225.000	2.922	3708.361	30567.499	-1.009E-04	1.094E-03				
1226.000	3.000	3707.491	30570.471	-6.744E-05	9.801E-04				
1227.000	3.048	3706.814	30573.479	-8.567E-05	1.068E-03				
1228.000	3.082	3706.133	30576.496	-8.628E-05	1.106E-03				
1229.000	2.878	3705.554	30579.378	-7.109E-05	9.600E-04				
1230.000	2.781	3705.007	30582.296	-7.838E-05	1.165E-03				
1231.000	3.014	3704.554	30585.278	-7.473E-05	1.189E-03				
1232.000	3.019	3704.121	30588.213	-8.992E-05	1.009E-03				
1233.000	2.859	3703.696	30591.188	-8.932E-05	1.092E-03				
1234.000	2.971	3703.301	30594.095	-9.296E-05	1.086E-03				
1235.000	2.859	3702.926	30596.964	-8.081E-05	1.121E-03				
1236.000	2.898	3702.624	30599.867	-7.838E-05	1.106E-03				
1237.000	2.898	3702.330	30602.770	-7.170E-05	9.381E-04				
1238.000	2.859	3702.067	30605.663	-6.805E-05	1.034E-03				
1239.000	2.873	3701.782	30608.593	-7.838E-05	1.008E-03				
1240.000	2.893	3701.562	30611.458	-8.263E-05	9.734E-04				
1241.000	2.912	3701.293	30614.342	-6.866E-05	1.066E-03				
1242.000	2.791	3701.068	30617.260	-7.656E-05	9.363E-04				
1243.000	2.898	3700.934	30620.186	-7.413E-05	1.055E-03				
1244.000	3.082	3700.762	30623.186	-7.777E-05	1.048E-03				
1245.000	2.854	3700.550	30626.200	-8.142E-05	1.077E-03				
1246.000	3.058	3700.405	30629.173	-7.899E-05	1.069E-03				
1247.000	3.039	3700.269	30632.185	-7.595E-05	1.023E-03				
1248.000	2.825	3700.076	30635.101	-8.020E-05	1.053E-03				
1249.000	2.927	3699.916	30638.023	-7.413E-05	9.837E-04				
1250.000	2.946	3699.826	30641.008	-8.142E-05	1.003E-03				
1251.000	3.048	3699.687	30644.062	-7.838E-05	1.042E-03				
1252.000	2.859	3699.588	30647.001	-1.027E-04	1.062E-03				
1253.000	2.951	3699.468	30649.954	-7.656E-05	1.065E-03				
1254.000	3.010	3699.342	30652.897	-7.656E-05	9.691E-04				
1255.000	2.995	3699.245	30655.895	-8.506E-05	1.069E-03				
1256.000	3.005	3699.187	30658.777	-8.203E-05	1.090E-03				
1257.000	2.946	3699.076	30661.747	-6.441E-05	1.056E-03				
1258.000	2.781	3699.001	30664.701	-6.684E-05	1.241E-03				
1259.000	3.034	3698.897	30667.681	-6.927E-05	1.110E-03				
1260.000	2.878	3698.808	30670.574	-8.810E-05	1.063E-03				
1261.000	2.878	3698.748	30673.452	-9.175E-05	1.099E-03				
1262.000	2.864	3698.670	30676.311	-8.446E-05	1.126E-03				
1263.000	3.000	3698.628	30679.321	-6.805E-05	1.012E-03				
1264.000	2.903	3698.539	30682.199	-8.810E-05	1.109E-03				
1265.000	2.941	3698.484	30685.114	-8.689E-05	1.054E-03				
1266.000	3.048	3698.436	30688.137	-7.777E-05	1.069E-03				
1267.000	2.864	3698.362	30691.031	-9.296E-05	1.048E-03				
1268.000	2.839	3698.312	30693.966	-8.749E-05	1.028E-03				
1269.000	2.854	3698.254	30696.844	-7.352E-05	1.029E-03				
1270.000	2.869	3698.207	30699.692	-8.446E-05	1.011E-03				
1271.000	2.961	3698.173	30702.639	-8.992E-05	1.068E-03				
1272.000	2.864	3698.129	30705.585	-7.899E-05	9.904E-04				
1273.000	3.107	3698.078	30708.525	-9.296E-05	1.145E-03				
1274.000	2.976	3698.055	30711.494	-8.203E-05	1.075E-03				
1275.000	2.937	3698.022	30714.405	-6.927E-05	1.000E-03				
1276.000	2.985	3697.985	30717.381	-8.385E-05	1.073E-03				
1277.000	3.063	3697.939	30720.306	-8.871E-05	9.649E-04				
1278.000	2.937	3697.871	30723.234	-8.446E-05	1.104E-03				
1279.000	2.883	3697.871	30726.133	-9.235E-05	1.005E-03				
1280.000	2.917	3697.814	30729.031	-9.904E-05	1.010E-03				
1281.000	2.883	3697.772	30731.880	-9.600E-05	1.101E-03				
1282.000	2.873	3697.766	30734.743	-8.810E-05	1.052E-03				
1283.000	2.927	3697.742	30737.661	-9.418E-05	9.460E-04				
1284.000	2.898	3697.715	30740.526	-7.899E-05	1.120E-03				
1285.000	2.786	3697.708	30743.359	-7.960E-05	1.010E-03				
1286.000	2.766	3697.664	30746.210	-9.479E-05	1.037E-03				
1287.000	2.796	3697.626	30748.989	-8.263E-05	9.861E-04				
1288.000	2.971	3697.647	30751.909	-8.567E-05	1.018E-03				
1289.000	2.820	3697.644	30754.847	-9.418E-05	1.087E-03				
1290.000	2.995	3697.589	30757.784	-8.932E-05	1.154E-03				
1291.000	2.820	3697.579	30760.740	-6.744E-05	1.088E-03				
1292.000	2.849	3697.569	30763.638	-8.628E-05	1.059E-03				
1293.000	2.937	3697.515	30766.521	-7.716E-05	1.058E-03				
1294.000	2.888	3697.523	30769.428	-8.932E-05	1.069E-03				
1295.000	2.869	3697.507	30772.299	-9.357E-05	1.152E-03				
1296.000	2.951	3697.459	30775.200	-1.051E-04	9.199E-04				
1297.000	2.781	3697.421	30778.048	-7.777E-05	1.063E-03				
1298.000	2.937	3697.465	30781.015	-8.689E-05	9.454E-04				
1299.000	2.976	3697.446	30783.913	-7.960E-05	9.740E-04				
1300.000	2.869	3697.409	30786.770	-8.810E-05	9.703E-04				
1301.000	2.844	3697.397	30789.658	-9.053E-05	1.105E-03				
1302.000	2.922	3697.395	30792.522	-9.479E-05	1.094E-03				
1303.000	2.946	3697.373	30795.458	-8.446E-05	1.034E-03				
1304.000	3.053	3697.365	30798.361	-7.534E-05	1.126E-03				
1305.000	2.971	3697.368	30801.277	-1.009E-04	1.087E-03				
1306.000	2.903	3697.349	30804.230	-7.048E-05	1.113E-03				
1307.000	3.000	3697.293	30807.171	-8.324E-05	1.074E-03				
1308.000	2.830	3697.271	30809.975	-8.749E-05	9.454E-04				
1309.000	2.927	3697.307	30812.864	-7.595E-05	1.073E-03				
1310.000	2.839	3697.273	30815.783	-7.960E-05	1.161E-03				
1311.000	2.859	3697.251	30818.697	-9.965E-05	1.085E-03				
1312.000	2.966	3697.254	30821.619	-9.539E-05	1.026E-03				
1313.000	2.869	3697.251	30824.530	-8.385E-05	1.038E-03				
1314.000	3.005	3697.219	30827.444	-8.385E-05	1.074E-03				
1315.000	2.786	3697.188	30830.360	-7.413E-05	1.037E-03				
1316.000	2.864	3697.216	30833.284	-8.263E-05	9.898E-04				
1317.000	2.883	3697.195	30836.222	-8.263E-05	1.135E-03				
1318.000	2.898	3697.187	30839.121	-8.567E-05	1.047E-03				
1319.000	2.864	3697.220	30842.039	-7.777E-05	9.582E-04				
1320.000	2.912	3697.137	30844.971	-8.628E-05	1.060E-03				
1321.000	2.893	3697.166	30847.857	-1.003E-04	1.109E-03				
1322.000	2.898	3697.176	30850.712	-9.053E-05	1.085E-03				
1323.000	2.912	3697.164	30853.580	-7.109E-05	9.308E-04				
1324.000	2.932	3697.165	30856.480	-7.777E-05	1.055E-03				
1325.000	2.839	3697.126	30859.421	-8.810E-05	1.026E-03				
1326.000	2.893	3697.157	30862.312	-8.081E-05	8.986E-04				
1327.000	2.951	3697.125	30865.191	-8.142E-05	1.091E-03				
1328.000	2.927	3697.145	30868.099	-6.319E-05	1.032E-03				
1329.000	3.155	3697.154	30871.063	-7.413E-05	1.015E-03				
1330.000	3.010	3697.145	30874.077	-9.175E-05	1.125E-03				
1331.000	3.014	3697.101	30877.087	-7.960E-05	1.103E-03				
1332.000	3.146	3697.113	30880.165	-8.749E-05	1.120E-03				
1333.000	2.883	3697.072	30883.160	-8.689E-05	1.061E-03				
1334.000	3.082	3697.119	30886.162	-7.230E-05	1.101E-03				
1335.000	2.869	3697.052	30889.111	-7.899E-05	1.001E-03				
1336.000	2.976	3697.033	30892.065	-6.866E-05	1.082E-03				
1337.000	2.873	3697.058	30895.075	-7.899E-05	1.042E-03				
1338.000	3.063	3697.073	30898.184	-6.197E-05	1.009E-03				
1339.000	3.014	3697.053	30901.245	-8.749E-05	1.059E-03				
1340.000	2.956	3697.056	30904.259	-7.109E-05	1.088E-03				
1340.200	-2493.158	3534.421	30405.626	-6.927E-05	1.077E-03				
1340.400	-2495.152	3533.093	29906.595	-6.137E-05	1.030E-03				
1340.600	-2495.776	3532.092	29407.440	-8.446E-05	1.178E-03				
1341.000	-2496.085	3530.346	28409.039	-6.805E-05	1.058E-03				
1341.400	-2496.336	3528.834	27410.534	-6.866E-05	1.051E-03				
1341.800	-2496.379	3527.459	26411.970	-7.291E-05	1.043E-03				
1342.200	-2496.600	3526.154	25413.357	-7.777E-05	9.746E-04				
1342.600	-2496.447	3525.042	24414.770	-6.987E-05	1.053E-03				
1343.000	-2496.600	3523.903	23416.134	-6.866E-05	1.080E-03				
1343.400	-2496.593	3522.854	22417.490	-8.324E-05	1.074E-03				
1343.800	-2496.523	3521.796	21418.877	-5.651E-05	1.123E-03				
1344.400	-2496.605	3520.378	19920.889	-6.015E-05	1.068E-03				
1345.000	-2496.603	3518.999	18422.939	-7.777E-05	1.061E-03				
1345.600	-2496.739	3517.688	16924.992	-6.076E-05	1.068E-03				
1346.200	-2496.659	3516.475	15426.998	-7.960E-05	1.117E-03				
1346.800	-2496.530	3515.311	13929.034	-6.927E-05	1.043E-03				
1347.400	-2496.664	3514.128	12431.059	-5.894E-05	9.843E-04				
1348.000	-2496.523	3513.047	10933.081	-5.772E-05	1.080E-03				
1348.600	-2496.583	3512.037	9435.120	-6.744E-05	1.136E-03				
1349.200	-2496.586	3510.974	7937.133	-6.927E-05	1.125E-03				
1350.000	-2496.700	3509.636	5939.813	-9.296E-05	1.091E-03				
1350.800	-2496.724	3508.462	3942.472	-7.534E-05	1.046E-03				
1351.000	0.695	3671.412	3942.611	-1.045E-04	1.065E-03				
1351.200	1.945	3672.441	3942.999	-7.777E-05	1.129E-03				
1351.600	2.553	3673.734	3943.996	-7.595E-05	1.203E-03				
1352.200	2.650	3675.102	3945.601	-8.142E-05	1.072E-03				
1352.800	2.645	3676.193	3947.234	-7.656E-05	9.922E-04				
1353.600	2.941	3677.374	3949.510	-8.203E-05	1.059E-03				
1354.600	2.805	3678.586	3952.321	-7.473E-05	1.057E-03				
1355.600	2.946	3679.611	3955.207	-7.534E-05	1.099E-03				
1356.600	2.980	3680.470	3958.137	-7.777E-05	1.017E-03				
1357.600	2.980	3681.234	3961.012	-7.838E-05	9.934E-04				
1358.600	2.835	3681.892	3963.882	-8.932E-05	1.080E-03				
1359.600	2.985	3682.491	3966.813	-7.960E-05	1.086E-03				
1360.600	2.971	3683.043	3969.764	-7.656E-05	1.094E-03				
1361.600	3.014	3683.517	3972.723	-8.385E-05	1.097E-03				
1362.600	3.073	3683.974	3975.732	-7.716E-05	1.043E-03				
1363.600	2.878	3684.373	3978.591	-8.081E-05	1.003E-03				
1364.600	3.068	3684.785	3981.499	-9.782E-05	1.089E-03				
1365.600	2.893	3685.112	3984.507	-7.352E-05	1.060E-03				
1366.600	2.859	3685.446	3987.391	-8.689E-05	1.050E-03				
1367.600	2.869	3685.719	3990.269	-8.628E-05	1.175E-03				
1368.600	2.786	3685.989	3993.180	-8.263E-05	1.092E-03				
1369.600	2.927	3686.267	3996.108	-7.534E-05	1.034E-03				
1370.600	2.956	3686.564	3999.034	-8.385E-05	1.023E-03				
1371.600	2.951	3686.740	4001.849	-7.656E-05	1.070E-03				
1372.600	2.927	3686.996	4004.804	-7.534E-05	1.167E-03				
1373.600	2.917	3687.184	4007.751	-6.927E-05	1.119E-03				
1374.600	2.980	3687.400	4010.718	-6.197E-05	1.139E-03				
1375.600	2.907	3687.550	4013.552	-8.324E-05	1.040E-03				
1376.600	2.854	3687.708	4016.455	-7.534E-05	1.134E-03				
1377.600	2.941	3687.864	4019.454	-7.048E-05	1.047E-03				
1378.600	2.776	3688.035	4022.394	-7.595E-05	1.055E-03				
1379.600	3.005	3688.153	4025.342	-7.048E-05	1.072E-03				
1380.600	2.898	3688.251	4028.226	-9.600E-05	9.636E-04				
1381.600	2.859	3688.416	4031.138	-8.871E-05	1.030E-03				
1382.600	3.005	3688.530	4034.149	-8.446E-05	9.807E-04				
1383.600	3.000	3688.637	4037.107	-8.506E-05	1.006E-03				
1384.600	3.010	3688.758	4040.022	-7.230E-05	1.051E-03				
1385.600	2.971	3688.839	4043.004	-8.081E-05	1.075E-03				
1386.600	2.937	3688.924	4045.961	-8.020E-05	1.007E-03				
1387.600	2.917	3689.049	4048.926	-8.567E-05	1.085E-03				
1388.600	2.859	3689.106	4051.881	-8.020E-05	9.788E-04				
1389.600	2.888	3689.182	4054.768	-8.506E-05	1.088E-03				
1390.600	2.781	3689.281	4057.588	-8.081E-05	1.038E-03				
1391.600	2.830	3689.346	4060.424	-8.749E-05	1.064E-03				
1392.600	3.058	3689.457	4063.403	-8.506E-05	1.136E-03				
1393.600	2.995	3689.509	4066.335	-8.446E-05	1.032E-03				
1394.600	2.917	3689.559	4069.277	-9.843E-05	1.055E-03				
1395.600	3.024	3689.642	4072.210	-8.020E-05	1.069E-03				
1396.600	2.922	3689.690	4075.195	-8.142E-05	1.111E-03				
1397.600	2.893	3689.742	4078.128	-7.595E-05	1.172E-03				
1398.600	3.044	3689.824	4081.121	-8.567E-05	9.673E-04				
1399.600	2.946	3689.839	4084.034	-8.324E-05	1.090E-03				
1400.600	2.859	3689.867	4086.967	-8.689E-05	1.080E-03				
1401.600	2.932	3689.962	4089.916	-9.661E-05	1.092E-03				
1402.600	2.956	3690.009	4092.852	-8.567E-05	9.928E-04				
1403.600	2.941	3690.054	4095.767	-9.114E-05	1.007E-03				
1404.600	3.053	3690.101	4098.771	-9.296E-05	1.108E-03				
1405.600	2.796	3690.141	4101.748	-9.357E-05	9.746E-04				
1406.600	2.854	3690.186	4104.718	-8.628E-05	1.078E-03				
1407.600	2.985	3690.222	4107.736	-8.749E-05	1.113E-03				
1408.600	3.146	3690.237	4110.728	-5.894E-05	9.363E-04				
1409.600	3.024	3690.275	4113.759	-1.021E-04	9.807E-04				
1410.600	3.160	3690.331	4116.793	-6.927E-05	9.381E-04				
1411.600	2.864	3690.358	4119.691	-9.175E-05	1.041E-03				
1412.600	3.073	3690.353	4122.685	-8.263E-05	1.050E-03				
1413.600	2.883	3690.378	4125.660	-7.595E-05	1.082E-03				
1414.600	2.839	3690.425	4128.589	-8.506E-05	1.013E-03				
1415.600	2.951	3690.422	4131.513	-7.109E-05	9.861E-04				
1416.600	2.951	3690.498	4134.449	-8.932E-05	1.133E-03				
1417.600	3.024	3690.517	4137.466	-8.749E-05	9.916E-04				
1418.600	2.820	3690.536	4140.445	-9.114E-05	1.128E-03				
1419.600	3.048	3690.583	4143.413	-8.506E-05	1.042E-03				
1420.600	2.878	3690.564	4146.345	-6.744E-05	1.067E-03				
1421.600	3.024	3690.611	4149.241	-9.114E-05	1.041E-03				
1422.600	2.941	3690.612	4152.147	-8.810E-05	1.012E-03				
1423.600	2.976	3690.660	4155.077	-8.324E-05	1.054E-03				
1424.600	2.941	3690.704	4158.060	-8.324E-05	1.021E-03				
1425.600	3.058	3690.672	4161.042	-7.656E-05	1.103E-03				
1426.600	2.883	3690.728	4163.939	-8.324E-05	1.108E-03				
1427.600	2.980	3690.719	4166.955	-8.628E-05	1.153E-03				
1428.600	3.082	3690.728	4169.900	-8.506E-05	1.032E-03				
1429.600	2.873	3690.768	4172.825	-7.960E-05	1.079E-03				
1430.600	2.941	3690.807	4175.723	-8.810E-05	1.037E-03				
1431.600	2.888	3690.796	4178.584	-8.324E-05	9.527E-04				
1432.600	2.990	3690.828	4181.464	-8.142E-05	1.097E-03				
1433.600	2.893	3690.816	4184.424	-7.534E-05	1.122E-03				
1434.600	2.961	3690.826	4187.350	-8.506E-05	1.004E-03				
1435.600	2.941	3690.838	4190.225	-8.203E-05	1.068E-03				
1436.600	2.844	3690.856	4193.058	-9.418E-05	1.155E-03				
1437.600	2.893	3690.878	4195.996	-8.749E-05	1.045E-03				
1438.600	3.068	3690.902	4198.962	-7.838E-05	1.092E-03				
1439.600	3.073	3690.939	4201.953	-7.473E-05	1.137E-03				
1440.600	3.014	3690.944	4204.911	-7.656E-05	1.009E-03				
1441.600	2.839	3690.941	4207.786	-9.661E-05	1.020E-03				
1442.600	2.946	3690.948	4210.683	-8.081E-05	1.117E-03				
1443.600	2.859	3690.987	4213.570	-5.954E-05	1.052E-03				
1444.600	2.878	3690.979	4216.409	-8.385E-05	1.106E-03				
1445.600	2.971	3691.004	4219.323	-8.142E-05	1.161E-03				
1446.600	2.883	3690.989	4222.215	-7.291E-05	1.075E-03				
1447.600	2.995	3690.982	4225.202	-7.534E-05	1.106E-03				
1448.600	2.796	3691.041	4228.106	-9.053E-05	1.103E-03				
1449.600	2.917	3691.026	4231.051	-6.441E-05	1.224E-03				
1450.600	2.844	3691.062	4234.016	-8.385E-05	1.119E-03				
1451.600	2.873	3691.050	4236.970	-7.291E-05	1.020E-03				
1452.600	2.835	3691.061	4239.848	-9.175E-05	1.131E-03				
1453.600	2.878	3691.107	4242.771	-8.203E-05	1.055E-03				
1454.600	2.922	3691.100	4245.703	-9.296E-05	1.065E-03				
1455.600	2.859	3691.110	4248.583	-7.230E-05	1.137E-03				
1456.600	2.907	3691.092	4251.520	-6.927E-05	1.091E-03				
1457.600	2.937	3691.118	4254.408	-7.473E-05	1.114E-03				
1458.600	3.063	3691.121	4257.367	-7.899E-05	1.137E-03				
1459.600	2.922	3691.133	4260.294	-8.506E-05	1.007E-03				
1460.600	2.927	3691.079	4263.220	-6.927E-05	9.235E-04				
1461.600	3.044	3691.172	4266.215	-8.628E-05	9.849E-04				
1462.600	2.971	3691.109	4269.100	-8.203E-05	1.024E-03				
1463.600	2.873	3691.169	4271.990	-7.960E-05	1.047E-03				
1464.600	2.776	3691.129	4274.874	-9.479E-05	9.618E-04				
1465.600	2.766	3691.154	4277.701	-8.446E-05	1.101E-03				
1466.600	2.835	3691.206	4280.534	-8.020E-05	1.020E-03				
1467.600	2.859	3691.197	4283.432	-7.109E-05	1.000E-03				
1468.600	2.859	3691.175	4286.271	-9.357E-05	1.030E-03				
1469.600	2.893	3691.202	4289.093	-7.960E-05	1.057E-03				
1470.600	2.708	3691.221	4291.993	-8.932E-05	1.036E-03				
1470.800	2.659	3691.225	4292.525	-7.960E-05	1.097E-03				
