time /s	I /mA	E /mV	Q /mC	An In 1	An In 2	Rs	Cs	Zab	Phase
0.200	2.650	4108.737	0.530	-9.843E-05	9.983E-04				
0.600	2.664	4108.811	1.596	-9.843E-05	1.018E-03				
1.000	2.679	4108.816	2.674	-1.015E-04	1.006E-03				
1.200	2.771	4108.774	3.228	-1.136E-04	1.139E-03				
1.600	2.776	4108.831	4.322	-1.167E-04	9.400E-04				
2.000	2.728	4108.787	5.410	-9.114E-05	9.515E-04				
2.200	2.985	4108.829	6.007	-1.027E-04	1.127E-03				
2.600	2.674	4108.841	7.084	-1.057E-04	9.624E-04				
3.400	2.839	4108.809	9.294	-1.003E-04	1.071E-03				
4.400	2.674	4108.836	12.038	-9.843E-05	1.006E-03				
5.400	2.732	4108.878	14.758	-9.479E-05	1.040E-03				
6.400	2.606	4108.866	17.499	-8.992E-05	9.959E-04				
7.400	2.728	4108.862	20.318	-1.094E-04	9.454E-04				
8.400	2.849	4108.898	23.092	-1.021E-04	9.952E-04				
9.400	2.694	4108.860	25.809	-1.154E-04	9.624E-04				
10.400	2.776	4108.899	28.578	-1.057E-04	1.046E-03				
11.400	2.771	4108.888	31.276	-9.722E-05	9.539E-04				
12.400	2.742	4108.869	34.032	-1.039E-04	1.015E-03				
13.400	2.742	4108.856	36.753	-1.051E-04	1.089E-03				
14.400	2.766	4108.916	39.473	-1.027E-04	9.169E-04				
15.400	2.864	4108.887	42.310	-1.209E-04	1.066E-03				
16.400	2.810	4108.926	45.105	-1.112E-04	1.004E-03				
17.400	2.640	4108.915	47.811	-1.051E-04	9.819E-04				
18.400	2.786	4108.857	50.570	-9.782E-05	9.922E-04				
19.400	2.830	4108.910	53.369	-8.263E-05	9.667E-04				
20.400	2.898	4108.893	56.199	-1.027E-04	9.643E-04				
21.400	2.684	4108.906	58.981	-1.039E-04	9.266E-04				
22.400	2.966	4108.926	61.837	-8.567E-05	9.928E-04				
23.400	2.878	4108.908	64.649	-1.039E-04	1.007E-03				
24.400	2.854	4108.917	67.379	-1.142E-04	1.007E-03				
25.400	2.791	4108.933	70.118	-1.082E-04	1.025E-03				
26.400	2.742	4108.869	72.794	-9.782E-05	9.381E-04				
27.400	2.771	4108.935	75.522	-1.088E-04	1.003E-03				
28.400	2.980	4108.898	78.405	-9.600E-05	1.052E-03				
29.400	2.854	4108.940	81.226	-1.130E-04	9.952E-04				
30.400	2.732	4108.900	83.973	-9.904E-05	9.801E-04				
31.400	2.776	4108.922	86.729	-1.027E-04	9.029E-04				
32.400	2.786	4108.951	89.469	-1.003E-04	1.027E-03				
33.400	2.888	4108.955	92.281	-1.027E-04	9.308E-04				
34.400	2.674	4108.955	95.072	-1.227E-04	9.928E-04				
35.400	2.830	4108.952	97.874	-1.100E-04	9.691E-04				
36.400	2.786	4108.901	100.651	-1.112E-04	9.928E-04				
37.400	2.742	4108.924	103.478	-1.033E-04	8.403E-04				
38.400	2.703	4108.953	106.269	-1.063E-04	9.758E-04				
39.400	2.815	4108.947	109.086	-1.106E-04	9.873E-04				
40.400	2.844	4108.943	111.868	-1.075E-04	1.172E-03				
41.400	2.815	4108.922	114.631	-1.003E-04	1.096E-03				
42.400	2.650	4108.968	117.446	-1.015E-04	1.018E-03				
43.400	2.664	4108.928	120.180	-1.039E-04	1.045E-03				
44.400	2.674	4108.954	122.878	-9.965E-05	9.752E-04				
45.400	2.621	4108.918	125.562	-9.114E-05	9.831E-04				
46.400	2.893	4108.911	128.390	-8.810E-05	1.012E-03				
47.400	2.742	4108.940	131.143	-1.130E-04	1.045E-03				
48.400	2.737	4108.912	133.873	-1.094E-04	1.012E-03				
49.400	2.732	4108.947	136.626	-1.130E-04	1.102E-03				
50.400	2.762	4108.927	139.464	-1.130E-04	1.051E-03				
51.400	2.723	4108.936	142.192	-1.179E-04	1.023E-03				
52.400	2.650	4108.967	144.899	-9.296E-05	1.070E-03				
53.400	2.737	4108.929	147.654	-9.904E-05	1.058E-03				
54.400	2.762	4108.929	150.398	-1.003E-04	1.028E-03				
55.400	2.854	4108.953	153.165	-1.045E-04	1.014E-03				
56.400	2.732	4108.951	155.968	-1.136E-04	1.080E-03				
57.400	2.703	4108.937	158.678	-1.063E-04	1.036E-03				
58.400	2.752	4108.977	161.485	-9.479E-05	1.018E-03				
59.400	2.878	4108.920	164.300	-9.965E-05	1.051E-03				
60.400	2.980	4108.908	167.075	-9.296E-05	9.624E-04				
61.400	2.903	4108.950	169.955	-9.965E-05	9.217E-04				
62.400	2.835	4108.930	172.857	-1.094E-04	1.012E-03				
63.400	2.718	4108.927	175.645	-9.843E-05	8.865E-04				
64.400	2.903	4108.947	178.446	-1.173E-04	9.205E-04				
65.400	2.786	4108.940	181.263	-1.191E-04	9.485E-04				
66.400	2.898	4108.958	184.063	-1.015E-04	1.033E-03				
67.400	2.830	4108.958	186.845	-9.600E-05	9.339E-04				
68.400	2.927	4108.955	189.728	-1.021E-04	1.015E-03				
69.400	2.810	4108.938	192.579	-1.100E-04	9.254E-04				
70.400	2.873	4108.962	195.449	-9.296E-05	1.022E-03				
71.400	2.951	4108.968	198.302	-1.124E-04	9.023E-04				
72.400	2.849	4108.954	201.107	-1.051E-04	9.618E-04				
73.400	2.971	4108.955	203.956	-9.418E-05	1.056E-03				
74.400	2.888	4108.957	206.832	-1.075E-04	9.715E-04				
75.400	2.971	4108.957	209.738	-1.215E-04	9.807E-04				
76.400	2.820	4108.913	212.534	-1.033E-04	9.959E-04				
77.400	2.766	4108.962	215.360	-9.175E-05	9.952E-04				
78.400	2.708	4108.963	218.191	-9.904E-05	1.012E-03				
79.400	2.630	4108.951	220.904	-1.088E-04	1.157E-03				
80.400	2.757	4108.918	223.627	-1.112E-04	9.503E-04				
81.400	2.830	4108.969	226.423	-1.148E-04	1.005E-03				
82.400	2.869	4108.951	229.245	-1.100E-04	9.266E-04				
83.400	2.844	4108.959	232.073	-1.082E-04	1.119E-03				
84.400	2.776	4108.967	234.918	-1.118E-04	1.021E-03				
85.400	2.810	4108.963	237.663	-9.904E-05	1.039E-03				
86.400	2.946	4108.965	240.471	-1.154E-04	9.065E-04				
87.400	2.893	4108.973	243.334	-1.094E-04	1.043E-03				
88.400	2.742	4108.957	246.133	-1.069E-04	1.001E-03				
89.400	2.664	4108.968	248.833	-1.142E-04	1.051E-03				
90.400	2.878	4108.966	251.683	-9.843E-05	9.132E-04				
91.400	2.849	4108.939	254.485	-1.154E-04	8.640E-04				
92.400	2.932	4108.977	257.356	-1.063E-04	1.122E-03				
93.400	2.844	4108.965	260.258	-9.904E-05	8.658E-04				
94.400	2.873	4108.965	263.056	-1.057E-04	9.150E-04				
95.400	2.844	4108.984	265.880	-1.100E-04	1.082E-03				
96.400	2.674	4108.973	268.648	-1.100E-04	9.564E-04				
97.400	2.786	4108.960	271.489	-1.124E-04	9.406E-04				
98.400	2.898	4108.957	274.369	-1.161E-04	9.503E-04				
99.400	2.732	4108.982	277.123	-9.904E-05	1.026E-03				
100.400	2.941	4108.971	279.948	-1.185E-04	1.068E-03				
101.400	2.878	4108.947	282.729	-1.069E-04	9.995E-04				
102.400	2.708	4108.951	285.552	-1.112E-04	1.022E-03				
103.400	2.718	4108.953	288.308	-1.009E-04	9.393E-04				
104.400	2.718	4108.968	291.035	-9.479E-05	1.021E-03				
105.400	2.718	4108.960	293.769	-1.124E-04	1.050E-03				
106.400	2.713	4108.955	296.529	-1.027E-04	1.024E-03				
107.400	2.796	4108.962	299.280	-1.136E-04	8.494E-04				
108.400	2.713	4108.944	302.066	-1.033E-04	1.041E-03				
109.400	2.796	4108.951	304.860	-9.843E-05	1.043E-03				
110.400	2.757	4108.940	307.547	-1.051E-04	1.066E-03				
111.400	2.859	4108.951	310.334	-1.082E-04	9.102E-04				
112.400	2.674	4108.947	313.031	-1.112E-04	9.442E-04				
113.400	2.844	4108.991	315.835	-1.264E-04	1.013E-03				
114.400	2.796	4108.971	318.557	-9.418E-05	8.804E-04				
115.400	2.723	4108.971	321.240	-1.179E-04	1.094E-03				
116.400	2.835	4108.920	323.959	-1.063E-04	9.928E-04				
117.400	2.645	4108.977	326.656	-1.063E-04	9.108E-04				
118.400	2.771	4108.997	329.375	-1.051E-04	9.922E-04				
119.400	2.621	4108.953	332.083	-1.088E-04	9.375E-04				
120.000	2.815	4108.979	333.738	-1.179E-04	1.046E-03				
120.200	252.587	4125.234	384.255	-1.154E-04	1.002E-03				
120.600	252.767	4125.456	485.372	-1.130E-04	1.007E-03				
121.400	252.670	4125.737	687.528	-1.039E-04	1.092E-03				
122.400	252.694	4126.099	940.231	-1.191E-04	9.229E-04				
123.400	252.952	4126.360	1193.055	-1.009E-04	9.770E-04				
124.400	252.660	4126.657	1445.752	-1.154E-04	8.415E-04				
125.400	252.869	4126.873	1698.508	-1.167E-04	8.986E-04				
126.400	252.592	4127.114	1951.216	-1.051E-04	1.079E-03				
127.400	252.767	4127.321	2203.993	-1.082E-04	9.460E-04				
128.400	252.748	4127.523	2456.729	-1.136E-04	1.171E-03				
129.400	252.893	4127.663	2709.487	-1.148E-04	1.038E-03				
130.400	252.646	4127.906	2962.198	-1.118E-04	9.831E-04				
131.400	252.874	4128.067	3214.996	-1.167E-04	9.649E-04				
132.400	252.709	4128.247	3467.767	-9.661E-05	1.083E-03				
133.400	252.806	4128.429	3720.518	-1.100E-04	1.055E-03				
134.400	252.762	4128.589	3973.297	-1.051E-04	1.046E-03				
135.400	252.971	4128.787	4226.100	-1.003E-04	1.063E-03				
136.400	252.801	4128.901	4478.876	-1.112E-04	1.021E-03				
137.400	252.835	4129.045	4731.737	-1.100E-04	8.865E-04				
138.400	252.801	4129.183	4984.491	-1.294E-04	1.010E-03				
139.400	252.879	4129.324	5237.334	-1.039E-04	9.290E-04				
140.400	252.957	4129.471	5490.147	-1.161E-04	9.685E-04				
141.400	252.840	4129.532	5742.986	-1.069E-04	9.734E-04				
142.400	252.689	4129.705	5995.750	-8.689E-05	9.570E-04				
143.400	252.704	4129.858	6248.624	-1.215E-04	1.003E-03				
144.400	252.903	4129.998	6501.471	-1.069E-04	9.679E-04				
145.400	252.850	4130.079	6754.233	-1.082E-04	1.041E-03				
146.400	252.898	4130.234	7007.041	-1.033E-04	1.027E-03				
147.400	252.811	4130.354	7259.726	-9.296E-05	1.061E-03				
148.400	252.748	4130.471	7512.494	-1.112E-04	9.485E-04				
149.400	252.777	4130.615	7765.357	-1.039E-04	9.916E-04				
150.400	252.782	4130.681	8018.167	-1.075E-04	1.001E-03				
151.400	252.660	4130.797	8270.876	-1.057E-04	9.302E-04				
152.400	252.684	4130.924	8523.505	-9.053E-05	1.029E-03				
153.400	252.675	4131.033	8776.252	-1.094E-04	9.916E-04				
154.400	252.650	4131.143	9028.913	-1.009E-04	1.079E-03				
155.400	252.772	4131.228	9281.617	-1.100E-04	1.077E-03				
156.400	252.791	4131.347	9534.358	-1.063E-04	9.728E-04				
157.400	252.923	4131.447	9787.195	-9.782E-05	1.116E-03				
158.400	252.840	4131.553	10040.030	-8.689E-05	9.363E-04				
159.400	252.893	4131.617	10292.788	-9.661E-05	1.032E-03				
160.400	252.811	4131.740	10545.601	-1.112E-04	9.910E-04				
161.400	252.840	4131.827	10798.418	-1.173E-04	9.630E-04				
162.400	252.942	4131.959	11051.273	-1.015E-04	1.011E-03				
163.400	252.684	4132.048	11304.019	-1.118E-04	9.600E-04				
164.400	252.782	4132.155	11556.872	-1.252E-04	8.974E-04				
165.400	252.855	4132.215	11809.727	-1.094E-04	1.023E-03				
166.400	252.743	4132.308	12062.511	-1.027E-04	1.022E-03				
167.400	252.850	4132.404	12315.357	-1.203E-04	1.105E-03				
168.400	253.020	4132.522	12568.235	-1.063E-04	1.020E-03				
169.400	252.923	4132.583	12821.148	-1.118E-04	9.029E-04				
170.400	252.840	4132.688	13074.037	-8.567E-05	1.023E-03				
171.400	252.893	4132.777	13326.925	-1.136E-04	9.977E-04				
172.400	252.884	4132.890	13579.792	-1.142E-04	1.051E-03				
173.400	252.971	4132.983	13832.680	-1.124E-04	1.073E-03				
174.400	252.840	4133.072	14085.593	-1.161E-04	1.068E-03				
175.400	252.762	4133.155	14338.412	-1.027E-04	1.009E-03				
176.400	252.670	4133.239	14591.269	-1.075E-04	1.037E-03				
177.400	252.869	4133.306	14844.113	-1.112E-04	9.813E-04				
178.400	252.884	4133.392	15096.967	-1.039E-04	1.008E-03				
179.400	252.859	4133.435	15349.771	-1.033E-04	1.029E-03				
180.400	252.859	4133.584	15602.625	-1.009E-04	1.171E-03				
181.400	252.782	4133.663	15855.421	-8.932E-05	1.054E-03				
182.400	252.728	4133.730	16108.225	-1.142E-04	1.009E-03				
183.400	252.855	4133.768	16361.162	-9.539E-05	1.172E-03				
184.400	252.835	4133.881	16613.989	-1.021E-04	1.037E-03				
185.400	252.884	4134.020	16866.894	-1.063E-04	1.156E-03				
186.400	252.796	4134.090	17119.816	-1.173E-04	1.032E-03				
187.400	252.908	4134.174	17372.734	-1.069E-04	1.041E-03				
188.400	252.762	4134.255	17625.565	-9.479E-05	9.837E-04				
189.400	252.898	4134.330	17878.422	-1.209E-04	1.005E-03				
190.400	252.903	4134.419	18131.317	-1.021E-04	9.971E-04				
191.400	252.709	4134.503	18384.150	-1.075E-04	9.090E-04				
192.400	252.782	4134.585	18636.921	-1.100E-04	9.053E-04				
193.400	252.748	4134.669	18889.727	-9.782E-05	9.558E-04				
194.400	252.816	4134.726	19142.542	-1.215E-04	1.076E-03				
195.400	252.976	4134.829	19395.424	-1.051E-04	1.032E-03				
196.400	252.859	4134.912	19648.260	-1.094E-04	1.012E-03				
197.400	253.010	4134.985	19901.136	-9.114E-05	1.039E-03				
198.400	253.000	4135.054	20154.039	-9.782E-05	1.026E-03				
199.400	252.631	4135.138	20406.898	-1.051E-04	1.038E-03				
200.400	252.957	4135.208	20659.752	-9.296E-05	1.081E-03				
201.400	252.991	4135.306	20912.649	-1.082E-04	1.001E-03				
202.400	252.689	4135.386	21165.375	-1.227E-04	9.989E-04				
203.400	252.874	4135.439	21418.219	-1.167E-04	9.503E-04				
204.400	252.791	4135.561	21670.952	-1.136E-04	9.867E-04				
205.400	252.728	4135.597	21923.717	-1.094E-04	9.132E-04				
206.400	252.738	4135.727	22176.439	-1.082E-04	9.740E-04				
207.400	252.757	4135.745	22429.268	-1.063E-04	1.050E-03				
208.400	252.903	4135.845	22682.085	-9.843E-05	9.807E-04				
209.400	252.748	4135.900	22934.870	-1.100E-04	1.091E-03				
210.400	252.684	4136.000	23187.593	-9.357E-05	1.071E-03				
211.400	252.782	4136.076	23440.340	-1.094E-04	8.786E-04				
212.400	252.728	4136.160	23692.995	-9.904E-05	9.339E-04				
213.400	252.718	4136.237	23945.751	-1.148E-04	1.097E-03				
214.400	252.636	4136.288	24198.503	-9.661E-05	9.855E-04				
215.400	252.845	4136.405	24451.317	-1.239E-04	9.187E-04				
216.400	252.641	4136.470	24704.081	-1.003E-04	9.302E-04				
217.400	252.752	4136.542	24956.841	-1.021E-04	1.088E-03				
218.400	252.806	4136.655	25209.587	-1.106E-04	8.634E-04				
219.400	252.694	4136.694	25462.296	-1.027E-04	9.928E-04				
220.400	252.738	4136.753	25715.059	-1.094E-04	9.011E-04				
221.400	252.675	4136.863	25967.813	-9.782E-05	8.950E-04				
222.400	252.855	4136.942	26220.533	-1.075E-04	1.076E-03				
223.400	252.757	4137.010	26473.249	-1.003E-04	1.060E-03				
224.400	252.787	4137.086	26726.034	-1.033E-04	9.667E-04				
225.400	252.908	4137.177	26978.926	-1.021E-04	1.050E-03				
226.400	252.821	4137.267	27231.764	-1.003E-04	1.089E-03				
227.400	252.748	4137.342	27484.491	-8.749E-05	1.008E-03				
228.000	252.762	4137.358	27636.099	-1.082E-04	1.016E-03				
228.200	2.966	4121.181	27636.692	-1.148E-04	9.813E-04				
228.600	2.927	4120.970	27637.865	-1.094E-04	9.460E-04				
229.400	2.805	4120.693	27640.121	-9.539E-05	1.055E-03				
230.400	2.742	4120.412	27643.000	-1.100E-04	1.021E-03				
231.400	2.907	4120.197	27645.849	-1.185E-04	9.679E-04				
232.400	2.898	4120.071	27648.695	-1.094E-04	1.055E-03				
233.400	3.024	4119.858	27651.554	-9.418E-05	1.104E-03				
234.400	2.854	4119.766	27654.444	-1.203E-04	1.100E-03				
235.400	2.723	4119.588	27657.263	-9.965E-05	1.067E-03				
236.400	2.917	4119.480	27660.116	-1.197E-04	9.387E-04				
237.400	2.800	4119.337	27663.013	-1.009E-04	1.035E-03				
238.400	2.956	4119.234	27665.901	-1.124E-04	1.034E-03				
239.400	2.917	4119.127	27668.772	-1.100E-04	9.242E-04				
240.400	2.737	4118.992	27671.541	-1.154E-04	1.014E-03				
241.400	2.752	4118.930	27674.278	-9.722E-05	9.898E-04				
242.400	2.873	4118.846	27677.069	-9.722E-05	1.005E-03				
243.400	2.747	4118.763	27679.855	-1.045E-04	1.020E-03				
244.400	2.786	4118.671	27682.707	-1.045E-04	8.361E-04				
245.400	2.698	4118.616	27685.444	-1.033E-04	9.333E-04				
246.400	2.995	4118.567	27688.282	-1.045E-04	1.083E-03				
247.400	2.737	4118.435	27691.126	-1.082E-04	9.825E-04				
248.400	2.684	4118.459	27693.888	-1.094E-04	8.458E-04				
249.400	2.708	4118.386	27696.638	-9.965E-05	1.130E-03				
250.400	2.825	4118.310	27699.375	-9.782E-05	1.041E-03				
251.400	2.587	4118.228	27702.066	-1.039E-04	9.248E-04				
252.400	2.762	4118.193	27704.815	-1.021E-04	1.032E-03				
253.400	2.606	4118.157	27707.506	-1.094E-04	1.124E-03				
254.400	2.489	4118.110	27710.199	-8.689E-05	9.940E-04				
255.400	2.625	4118.077	27712.818	-1.331E-04	9.005E-04				
256.400	2.737	4118.009	27715.515	-1.124E-04	9.782E-04				
257.400	2.864	4117.997	27718.243	-1.051E-04	9.333E-04				
258.400	2.718	4117.911	27720.989	-1.063E-04	9.509E-04				
259.400	2.796	4117.926	27723.694	-1.009E-04	1.043E-03				
260.400	2.771	4117.868	27726.414	-1.057E-04	9.971E-04				
261.400	2.582	4117.811	27729.149	-1.082E-04	9.728E-04				
262.400	2.703	4117.744	27731.836	-1.094E-04	1.070E-03				
263.400	2.820	4117.790	27734.577	-1.082E-04	9.977E-04				
264.400	2.786	4117.732	27737.272	-1.118E-04	9.861E-04				
265.400	2.684	4117.705	27740.007	-1.027E-04	1.041E-03				
266.400	2.640	4117.695	27742.689	-1.142E-04	9.709E-04				
267.400	2.771	4117.658	27745.499	-1.057E-04	1.027E-03				
268.400	2.747	4117.611	27748.205	-1.173E-04	9.521E-04				
269.400	2.689	4117.610	27750.940	-1.069E-04	9.545E-04				
270.400	2.844	4117.579	27753.679	-1.167E-04	8.901E-04				
271.400	2.689	4117.548	27756.424	-1.075E-04	9.892E-04				
272.400	2.800	4117.541	27759.212	-1.027E-04	9.673E-04				
273.400	2.698	4117.512	27761.953	-1.075E-04	1.003E-03				
274.400	2.878	4117.479	27764.671	-9.479E-05	9.132E-04				
275.400	2.698	4117.415	27767.391	-1.094E-04	9.849E-04				
276.400	2.679	4117.471	27770.111	-1.191E-04	1.021E-03				
277.400	2.771	4117.410	27772.804	-1.045E-04	9.260E-04				
278.400	2.630	4117.426	27775.568	-1.015E-04	9.260E-04				
279.400	2.757	4117.343	27778.267	-1.112E-04	1.101E-03				
280.400	2.742	4117.362	27780.987	-1.161E-04	1.013E-03				
281.400	2.776	4117.374	27783.741	-1.027E-04	9.867E-04				
282.400	2.835	4117.317	27786.402	-1.118E-04	1.010E-03				
283.400	2.752	4117.324	27789.125	-1.063E-04	9.971E-04				
284.400	2.869	4117.332	27791.862	-1.185E-04	1.003E-03				
285.400	2.728	4117.322	27794.621	-1.252E-04	9.934E-04				
286.400	2.815	4117.300	27797.400	-1.075E-04	1.182E-03				
287.400	2.766	4117.277	27800.213	-1.021E-04	1.034E-03				
288.400	2.747	4117.262	27803.036	-1.057E-04	9.904E-04				
289.400	2.869	4117.225	27805.820	-1.185E-04	1.010E-03				
290.400	2.951	4117.260	27808.662	-1.015E-04	1.037E-03				
291.400	2.766	4117.240	27811.434	-1.118E-04	9.090E-04				
292.400	2.912	4117.237	27814.278	-1.094E-04	9.940E-04				
293.400	2.976	4117.227	27817.175	-1.276E-04	8.901E-04				
294.400	2.752	4117.172	27819.965	-9.965E-05	1.077E-03				
295.400	2.990	4117.141	27822.872	-1.021E-04	9.393E-04				
296.400	2.776	4117.150	27825.644	-1.057E-04	9.156E-04				
297.400	2.786	4117.147	27828.455	-1.039E-04	1.035E-03				
298.400	2.796	4117.148	27831.253	-1.100E-04	9.643E-04				
299.400	2.718	4117.145	27834.044	-1.112E-04	9.296E-04				
300.400	2.684	4117.105	27836.851	-1.112E-04	1.021E-03				
301.400	2.698	4117.073	27839.682	-1.088E-04	1.018E-03				
302.400	2.805	4117.100	27842.499	-1.239E-04	9.235E-04				
303.400	2.771	4117.102	27845.276	-1.203E-04	1.027E-03				
304.400	2.805	4117.063	27848.021	-1.082E-04	1.014E-03				
305.400	2.815	4117.074	27850.822	-1.130E-04	9.296E-04				
306.400	2.864	4117.062	27853.662	-1.233E-04	9.965E-04				
307.400	2.922	4117.044	27856.569	-1.033E-04	1.075E-03				
308.400	2.752	4117.051	27859.421	-1.003E-04	8.798E-04				
309.400	2.737	4117.022	27862.173	-1.191E-04	9.126E-04				
310.400	2.766	4117.009	27864.927	-1.075E-04	1.162E-03				
311.400	2.995	4117.010	27867.867	-1.167E-04	1.057E-03				
312.400	2.873	4116.991	27870.785	-9.904E-05	1.040E-03				
313.400	2.674	4117.028	27873.526	-1.112E-04	1.160E-03				
314.400	2.849	4116.995	27876.354	-1.197E-04	1.074E-03				
315.400	2.684	4116.976	27879.148	-1.033E-04	1.005E-03				
316.400	2.835	4116.982	27882.021	-1.173E-04	1.063E-03				
317.400	2.732	4116.961	27884.821	-1.003E-04	1.009E-03				
318.400	2.713	4116.970	27887.589	-9.843E-05	1.052E-03				
319.400	2.659	4116.951	27890.280	-1.124E-04	1.050E-03				
320.400	2.781	4116.942	27893.047	-1.185E-04	9.539E-04				
321.400	2.679	4116.887	27895.834	-9.965E-05	9.327E-04				
322.400	2.776	4116.908	27898.590	-9.235E-05	9.624E-04				
323.400	2.941	4116.899	27901.398	-1.094E-04	1.024E-03				
324.400	2.849	4116.886	27904.238	-1.124E-04	9.685E-04				
325.400	2.747	4116.886	27907.026	-1.197E-04	8.920E-04				
326.400	2.835	4116.903	27909.830	-1.094E-04	9.260E-04				
327.400	2.854	4116.869	27912.615	-1.124E-04	1.010E-03				
328.400	2.956	4116.859	27915.451	-1.233E-04	9.952E-04				
329.400	2.976	4116.864	27918.320	-1.033E-04	8.482E-04				
330.400	2.771	4116.874	27921.133	-1.136E-04	1.034E-03				
331.400	2.771	4116.889	27923.973	-1.233E-04	1.108E-03				
332.400	2.990	4116.889	27926.922	-1.039E-04	1.065E-03				
333.400	2.762	4116.836	27929.737	-1.112E-04	9.898E-04				
334.400	2.932	4116.866	27932.573	-9.843E-05	1.008E-03				
335.400	2.771	4116.876	27935.408	-1.148E-04	9.466E-04				
336.400	2.606	4116.846	27938.154	-1.021E-04	1.021E-03				
337.400	2.854	4116.858	27940.969	-1.009E-04	1.049E-03				
338.400	2.839	4116.810	27943.798	-1.306E-04	1.025E-03				
339.400	2.912	4116.821	27946.609	-1.057E-04	1.131E-03				
340.400	2.776	4116.784	27949.490	-1.130E-04	1.118E-03				
341.400	2.844	4116.820	27952.347	-9.296E-05	9.837E-04				
342.400	2.946	4116.792	27955.238	-1.124E-04	1.000E-03				
343.400	2.903	4116.796	27958.069	-1.106E-04	9.369E-04				
344.400	2.776	4116.851	27960.951	-1.015E-04	9.242E-04				
345.400	3.063	4116.819	27963.919	-1.203E-04	9.685E-04				
346.400	2.883	4116.792	27966.871	-1.173E-04	9.564E-04				
347.400	3.000	4116.801	27969.820	-1.082E-04	9.801E-04				
348.000	2.786	4116.766	27971.539	-1.015E-04	1.089E-03				
348.200	-247.011	4100.507	27922.136	-1.075E-04	1.072E-03				
348.600	-247.142	4100.311	27823.288	-9.965E-05	1.040E-03				
349.400	-247.198	4099.990	27625.561	-9.600E-05	9.594E-04				
350.400	-247.130	4099.662	27378.426	-8.749E-05	9.849E-04				
351.400	-247.100	4099.373	27131.210	-1.075E-04	1.066E-03				
352.400	-247.229	4099.078	26884.005	-9.661E-05	8.476E-04				
353.400	-247.164	4098.830	26636.822	-1.148E-04	9.053E-04				
354.400	-247.290	4098.624	26389.614	-9.296E-05	1.052E-03				
355.400	-247.190	4098.423	26142.393	-1.069E-04	1.111E-03				
356.400	-247.171	4098.118	25895.153	-1.136E-04	1.142E-03				
357.400	-247.300	4097.963	25647.926	-1.100E-04	1.074E-03				
358.400	-247.205	4097.785	25400.705	-9.175E-05	8.816E-04				
359.400	-247.183	4097.627	25153.435	-1.063E-04	1.044E-03				
360.400	-247.409	4097.447	24906.168	-1.142E-04	1.044E-03				
361.400	-247.341	4097.249	24658.943	-1.027E-04	1.052E-03				
362.400	-247.283	4097.108	24411.709	-9.782E-05	9.782E-04				
363.400	-247.380	4096.920	24164.392	-1.130E-04	1.141E-03				
364.400	-247.531	4096.758	23917.038	-9.722E-05	1.087E-03				
365.400	-247.446	4096.622	23669.676	-1.075E-04	9.515E-04				
366.400	-247.232	4096.429	23422.401	-9.053E-05	9.861E-04				
367.400	-247.361	4096.361	23175.062	-1.045E-04	1.024E-03				
368.400	-247.147	4096.200	22927.839	-1.082E-04	1.060E-03				
369.400	-247.256	4096.063	22680.628	-1.045E-04	1.060E-03				
370.400	-247.251	4095.966	22433.443	-1.136E-04	1.028E-03				
371.400	-247.149	4095.790	22186.203	-1.045E-04	1.167E-03				
372.400	-247.198	4095.688	21939.011	-1.003E-04	9.916E-04				
373.400	-247.079	4095.555	21691.822	-1.221E-04	1.050E-03				
374.400	-247.190	4095.467	21444.580	-9.053E-05	1.017E-03				
375.400	-247.283	4095.294	21197.273	-9.296E-05	9.788E-04				
376.400	-247.144	4095.173	20949.976	-8.628E-05	8.992E-04				
377.400	-247.234	4095.065	20702.738	-1.088E-04	9.801E-04				
378.400	-247.276	4094.965	20455.513	-1.003E-04	1.125E-03				
379.400	-247.147	4094.860	20208.317	-1.009E-04	9.904E-04				
380.400	-247.322	4094.716	19961.077	-1.094E-04	9.193E-04				
381.400	-247.215	4094.643	19713.873	-1.136E-04	1.045E-03				
382.400	-247.246	4094.544	19466.673	-9.843E-05	9.837E-04				
383.400	-247.169	4094.420	19219.360	-9.722E-05	9.880E-04				
384.400	-247.407	4094.325	18972.149	-1.088E-04	1.058E-03				
385.400	-247.139	4094.225	18724.932	-9.114E-05	8.992E-04				
386.400	-247.159	4094.117	18477.758	-9.479E-05	1.082E-03				
387.400	-247.329	4093.982	18230.507	-1.227E-04	1.040E-03				
388.400	-247.152	4093.900	17983.349	-1.118E-04	9.995E-04				
389.400	-247.195	4093.818	17736.124	-1.215E-04	1.113E-03				
390.400	-247.251	4093.722	17488.882	-1.173E-04	1.052E-03				
391.400	-247.254	4093.597	17241.606	-1.088E-04	1.011E-03				
392.400	-247.139	4093.488	16994.379	-8.385E-05	1.100E-03				
393.400	-247.258	4093.395	16747.160	-1.148E-04	1.026E-03				
394.400	-247.353	4093.324	16499.939	-1.021E-04	9.661E-04				
395.400	-247.307	4093.226	16252.651	-9.357E-05	1.069E-03				
396.400	-247.183	4093.113	16005.428	-1.009E-04	1.066E-03				
397.400	-247.254	4093.046	15758.152	-1.100E-04	9.734E-04				
398.400	-247.288	4092.935	15510.936	-8.203E-05	9.959E-04				
399.400	-247.215	4092.798	15263.718	-9.357E-05	9.734E-04				
400.400	-247.083	4092.771	15016.545	-9.965E-05	8.974E-04				
401.400	-247.207	4092.667	14769.337	-9.357E-05	1.145E-03				
402.400	-247.212	4092.564	14522.154	-1.221E-04	1.002E-03				
403.400	-247.190	4092.488	14274.937	-1.221E-04	1.020E-03				
404.400	-247.222	4092.371	14027.682	-9.965E-05	9.570E-04				
405.400	-247.176	4092.270	13780.535	-1.075E-04	1.079E-03				
406.400	-247.276	4092.188	13533.358	-9.661E-05	9.624E-04				
407.400	-247.244	4092.140	13286.018	-1.039E-04	9.187E-04				
408.400	-247.266	4092.031	13038.761	-1.112E-04	9.770E-04				
409.400	-247.404	4091.923	12791.441	-1.057E-04	1.057E-03				
410.400	-247.402	4091.859	12544.112	-1.009E-04	1.025E-03				
411.400	-247.205	4091.779	12296.803	-1.057E-04	1.050E-03				
412.400	-247.436	4091.684	12049.521	-9.843E-05	1.012E-03				
413.400	-247.300	4091.640	11802.207	-9.418E-05	1.119E-03				
414.400	-247.122	4091.519	11554.977	-9.175E-05	9.564E-04				
415.400	-247.183	4091.423	11307.708	-9.175E-05	1.035E-03				
416.400	-247.293	4091.320	11060.481	-1.124E-04	9.351E-04				
417.400	-247.358	4091.274	10813.215	-1.057E-04	1.010E-03				
418.400	-247.268	4091.146	10565.919	-1.124E-04	8.683E-04				
419.400	-247.317	4091.096	10318.681	-1.197E-04	9.989E-04				
420.400	-247.249	4091.033	10071.477	-1.039E-04	1.147E-03				
421.400	-247.232	4090.911	9824.189	-9.904E-05	9.673E-04				
422.400	-247.314	4090.859	9576.996	-8.749E-05	9.551E-04				
423.400	-247.186	4090.711	9329.727	-9.235E-05	9.813E-04				
424.400	-247.271	4090.676	9082.487	-1.057E-04	9.971E-04				
425.400	-247.169	4090.616	8835.256	-1.015E-04	9.801E-04				
426.400	-247.276	4090.518	8587.996	-9.175E-05	1.080E-03				
427.400	-247.331	4090.468	8340.739	-9.479E-05	9.873E-04				
428.400	-247.152	4090.358	8093.442	-1.027E-04	9.533E-04				
429.400	-247.443	4090.292	7846.110	-9.600E-05	9.934E-04				
430.400	-247.307	4090.198	7598.870	-1.106E-04	1.139E-03				
431.400	-247.288	4090.095	7351.595	-1.154E-04	9.418E-04				
432.400	-247.181	4090.075	7104.387	-9.904E-05	9.175E-04				
433.400	-247.122	4089.969	6857.100	-1.051E-04	8.932E-04				
434.400	-247.057	4089.860	6609.959	-9.904E-05	1.028E-03				
435.400	-247.217	4089.848	6362.770	-1.051E-04	1.103E-03				
436.400	-247.271	4089.750	6115.525	-1.009E-04	1.023E-03				
437.400	-247.378	4089.629	5868.157	-9.782E-05	9.527E-04				
438.400	-247.436	4089.576	5620.809	-1.021E-04	1.052E-03				
439.400	-247.477	4089.473	5373.406	-9.235E-05	9.758E-04				
440.400	-247.361	4089.410	5126.060	-1.021E-04	9.801E-04				
441.400	-247.334	4089.324	4878.774	-9.175E-05	1.084E-03				
442.400	-247.348	4089.267	4631.467	-1.167E-04	9.321E-04				
443.400	-247.171	4089.165	4384.207	-1.015E-04	9.564E-04				
444.400	-247.198	4089.116	4136.936	-1.003E-04	9.746E-04				
445.400	-247.239	4089.076	3889.654	-1.051E-04	1.069E-03				
446.400	-247.249	4088.969	3642.420	-1.003E-04	1.093E-03				
447.400	-247.181	4088.869	3395.160	-8.749E-05	1.108E-03				
448.400	-247.176	4088.826	3147.971	-1.051E-04	8.780E-04				
449.400	-247.210	4088.705	2900.745	-8.871E-05	1.079E-03				
450.400	-247.334	4088.655	2653.415	-9.722E-05	9.837E-04				
451.400	-247.305	4088.535	2406.137	-1.027E-04	1.072E-03				
452.400	-247.288	4088.528	2158.858	-9.600E-05	1.015E-03				
453.400	-247.229	4088.431	1911.595	-9.053E-05	9.539E-04				
454.400	-247.346	4088.293	1664.271	-8.324E-05	9.825E-04				
455.400	-247.130	4088.250	1417.054	-1.112E-04	8.834E-04				
456.000	-247.297	4088.250	1268.678	-8.871E-05	9.910E-04				
456.200	2.655	4104.476	1269.209	-1.112E-04	1.109E-03				
456.600	2.766	4104.694	1270.306	-1.100E-04	9.855E-04				
457.400	2.844	4104.914	1272.555	-8.324E-05	1.001E-03				
458.400	2.655	4105.166	1275.274	-1.075E-04	1.045E-03				
459.400	2.640	4105.381	1278.004	-1.106E-04	9.946E-04				
460.400	2.878	4105.596	1280.759	-1.082E-04	9.302E-04				
461.400	2.689	4105.745	1283.546	-1.215E-04	1.027E-03				
462.400	2.694	4105.919	1286.246	-1.118E-04	1.003E-03				
463.400	2.713	4106.009	1289.020	-9.357E-05	1.029E-03				
464.400	2.878	4106.143	1291.833	-1.027E-04	1.009E-03				
465.400	2.737	4106.291	1294.639	-1.027E-04	1.022E-03				
466.400	2.776	4106.392	1297.368	-1.021E-04	1.025E-03				
467.400	2.800	4106.467	1300.168	-9.539E-05	1.073E-03				
468.400	2.893	4106.586	1302.967	-1.148E-04	1.046E-03				
469.400	3.014	4106.678	1305.884	-9.235E-05	1.029E-03				
470.400	2.859	4106.743	1308.704	-1.227E-04	9.782E-04				
471.400	2.985	4106.796	1311.581	-1.100E-04	1.029E-03				
472.400	2.757	4106.910	1314.386	-1.130E-04	1.020E-03				
473.400	2.713	4106.970	1317.195	-1.130E-04	9.545E-04				
474.400	2.893	4107.060	1320.049	-1.027E-04	9.934E-04				
475.400	2.728	4107.075	1322.893	-1.027E-04	1.102E-03				
476.400	2.776	4107.122	1325.768	-1.106E-04	9.576E-04				
477.400	2.820	4107.192	1328.622	-1.173E-04	9.418E-04				
478.400	2.873	4107.279	1331.502	-1.142E-04	1.031E-03				
479.400	2.864	4107.306	1334.369	-1.051E-04	8.707E-04				
480.400	2.893	4107.370	1337.249	-1.088E-04	9.661E-04				
481.400	2.849	4107.423	1340.131	-9.661E-05	1.061E-03				
482.400	2.854	4107.423	1343.006	-9.600E-05	9.904E-04				
483.400	2.946	4107.495	1345.929	-1.057E-04	9.855E-04				
484.400	2.946	4107.528	1348.810	-1.009E-04	9.691E-04				
485.400	2.932	4107.585	1351.745	-1.233E-04	9.776E-04				
486.400	2.810	4107.579	1354.628	-1.027E-04	1.189E-03				
487.400	2.878	4107.637	1357.451	-9.965E-05	1.055E-03				
488.400	2.849	4107.664	1360.316	-1.094E-04	9.715E-04				
489.400	2.917	4107.653	1363.188	-1.082E-04	1.004E-03				
490.400	2.907	4107.706	1365.992	-1.142E-04	9.855E-04				
491.400	2.966	4107.747	1368.886	-9.600E-05	1.003E-03				
492.400	2.898	4107.795	1371.741	-1.057E-04	1.056E-03				
493.400	2.941	4107.824	1374.632	-1.082E-04	9.564E-04				
494.400	3.082	4107.816	1377.608	-1.003E-04	1.017E-03				
495.400	2.985	4107.828	1380.479	-1.009E-04	1.075E-03				
496.400	2.854	4107.885	1383.299	-9.782E-05	1.038E-03				
497.400	2.990	4107.921	1386.175	-1.069E-04	1.024E-03				
498.400	2.835	4107.916	1389.051	-1.015E-04	9.952E-04				
499.400	2.946	4107.959	1392.027	-1.112E-04	1.023E-03				
500.400	2.966	4107.971	1394.984	-1.039E-04	1.006E-03				
501.400	2.907	4107.985	1397.920	-1.045E-04	9.892E-04				
502.400	2.796	4107.987	1400.829	-1.009E-04	9.521E-04				
503.400	3.048	4108.016	1403.890	-1.075E-04	9.442E-04				
504.400	2.893	4108.040	1406.769	-1.118E-04	1.103E-03				
505.400	2.791	4108.076	1409.636	-9.722E-05	9.807E-04				
506.400	2.951	4108.069	1412.549	-1.136E-04	1.015E-03				
507.400	3.010	4108.113	1415.459	-1.051E-04	9.430E-04				
508.400	3.024	4108.109	1418.351	-1.130E-04	1.057E-03				
509.400	2.937	4108.131	1421.292	-1.179E-04	1.111E-03				
510.400	2.800	4108.090	1424.217	-9.782E-05	9.904E-04				
511.400	3.044	4108.175	1427.211	-1.045E-04	9.861E-04				
512.400	3.010	4108.120	1430.146	-1.051E-04	1.058E-03				
513.400	2.922	4108.165	1433.082	-9.539E-05	9.813E-04				
514.400	2.976	4108.183	1436.007	-1.197E-04	9.892E-04				
515.400	3.019	4108.226	1438.980	-1.027E-04	1.034E-03				
516.400	2.888	4108.217	1441.960	-1.082E-04	9.655E-04				
517.400	3.005	4108.213	1444.941	-1.094E-04	9.357E-04				
518.400	2.937	4108.226	1447.857	-1.015E-04	1.083E-03				
519.400	2.985	4108.273	1450.780	-1.148E-04	9.952E-04				
520.400	3.010	4108.253	1453.704	-1.124E-04	1.040E-03				
521.400	3.107	4108.286	1456.748	-1.154E-04	1.025E-03				
522.400	2.980	4108.286	1459.702	-9.235E-05	1.040E-03				
523.400	3.010	4108.274	1462.735	-1.015E-04	9.363E-04				
524.400	3.068	4108.300	1465.817	-1.069E-04	1.025E-03				
525.400	3.044	4108.333	1468.753	-1.094E-04	1.013E-03				
526.400	2.937	4108.340	1471.734	-1.082E-04	1.005E-03				
527.400	2.956	4108.346	1474.681	-1.015E-04	1.007E-03				
528.400	2.946	4108.335	1477.595	-9.600E-05	9.624E-04				
529.400	2.961	4108.352	1480.417	-1.027E-04	1.015E-03				
530.400	2.878	4108.347	1483.315	-1.118E-04	1.003E-03				
531.400	2.869	4108.344	1486.262	-1.021E-04	8.737E-04				
532.400	2.800	4108.377	1489.113	-1.112E-04	1.032E-03				
533.400	3.010	4108.365	1492.095	-1.167E-04	1.039E-03				
534.400	2.951	4108.374	1495.039	-1.209E-04	9.582E-04				
535.400	2.762	4108.344	1497.897	-1.124E-04	9.005E-04				
536.400	2.932	4108.416	1500.830	-1.039E-04	1.030E-03				
537.400	2.815	4108.405	1503.687	-1.009E-04	1.037E-03				
538.400	2.917	4108.411	1506.520	-1.179E-04	1.089E-03				
539.400	2.932	4108.401	1509.391	-1.130E-04	1.030E-03				
540.400	3.014	4108.412	1512.338	-1.106E-04	9.308E-04				
541.400	2.976	4108.432	1515.239	-8.992E-05	9.108E-04				
542.400	2.995	4108.403	1518.176	-1.027E-04	9.807E-04				
543.400	2.786	4108.441	1521.051	-1.221E-04	9.624E-04				
544.400	2.951	4108.450	1523.923	-1.161E-04	9.904E-04				
545.400	2.883	4108.434	1526.863	-1.027E-04	1.005E-03				
546.400	2.825	4108.438	1529.789	-8.871E-05	1.001E-03				
547.400	2.946	4108.458	1532.747	-9.843E-05	1.089E-03				
548.400	2.732	4108.435	1535.541	-1.082E-04	1.059E-03				
549.400	2.971	4108.438	1538.382	-1.154E-04	1.082E-03				
550.400	3.102	4108.446	1541.292	-1.118E-04	9.722E-04				
551.400	2.917	4108.485	1544.206	-1.021E-04	9.770E-04				
552.400	2.907	4108.459	1547.068	-1.167E-04	9.904E-04				
553.400	2.893	4108.475	1550.076	-1.021E-04	1.044E-03				
554.400	2.800	4108.506	1552.940	-1.027E-04	1.020E-03				
555.400	2.786	4108.492	1555.799	-1.148E-04	1.059E-03				
556.400	2.800	4108.485	1558.646	-9.418E-05	1.050E-03				
557.400	2.917	4108.441	1561.510	-1.215E-04	9.630E-04				
558.400	2.864	4108.511	1564.397	-1.136E-04	1.064E-03				
559.400	2.864	4108.544	1567.313	-1.063E-04	9.381E-04				
560.400	2.878	4108.514	1570.244	-1.136E-04	1.041E-03				
561.400	2.854	4108.542	1573.116	-9.722E-05	9.928E-04				
562.400	2.815	4108.553	1576.005	-1.148E-04	9.533E-04				
563.400	2.864	4108.498	1578.852	-9.782E-05	1.024E-03				
564.400	2.917	4108.564	1581.751	-1.069E-04	9.843E-04				
565.400	2.854	4108.561	1584.559	-1.075E-04	1.031E-03				
566.400	2.917	4108.543	1587.449	-1.003E-04	1.052E-03				
567.400	2.854	4108.561	1590.253	-1.057E-04	8.877E-04				
568.400	2.859	4108.573	1593.085	-1.100E-04	1.049E-03				
569.400	2.844	4108.552	1595.923	-1.258E-04	1.046E-03				
570.400	2.883	4108.591	1598.787	-1.039E-04	1.038E-03				
571.400	2.922	4108.582	1601.729	-9.843E-05	9.175E-04				
572.400	2.776	4108.563	1604.628	-9.539E-05	1.036E-03				
573.400	2.825	4108.604	1607.540	-1.039E-04	1.027E-03				
574.400	3.024	4108.580	1610.475	-1.063E-04	9.831E-04				
575.400	2.820	4108.596	1613.393	-9.904E-05	1.086E-03				
576.000	2.946	4108.596	1615.136	-1.100E-04	1.067E-03				
576.200	502.301	4141.109	1715.596	-1.057E-04	9.071E-04				
576.600	502.670	4141.567	1916.662	-1.088E-04	1.023E-03				
577.400	502.700	4142.222	2318.836	-9.053E-05	1.083E-03				
578.400	502.777	4142.864	2821.583	-1.100E-04	9.709E-04				
579.400	502.753	4143.451	3324.375	-1.227E-04	9.722E-04				
580.400	502.797	4143.961	3827.095	-1.027E-04	8.853E-04				
581.400	502.675	4144.481	4329.846	-9.539E-05	9.971E-04				
582.400	502.831	4144.903	4832.665	-1.209E-04	9.272E-04				
583.400	502.865	4145.330	5335.456	-1.148E-04	9.424E-04				
584.400	502.811	4145.727	5838.235	-1.227E-04	1.006E-03				
585.400	502.719	4146.100	6341.025	-1.051E-04	9.533E-04				
586.400	502.714	4146.459	6843.788	-1.063E-04	1.004E-03				
587.400	502.797	4146.850	7346.574	-1.039E-04	9.788E-04				
588.400	502.807	4147.189	7849.354	-1.009E-04	1.035E-03				
589.400	502.773	4147.477	8352.135	-9.965E-05	9.734E-04				
590.400	502.666	4147.867	8854.932	-1.057E-04	9.527E-04				
591.400	502.792	4148.150	9357.750	-1.185E-04	1.078E-03				
592.400	502.875	4148.421	9860.620	-1.221E-04	1.066E-03				
593.400	502.773	4148.744	10363.453	-1.233E-04	9.570E-04				
594.400	502.982	4149.039	10866.298	-1.161E-04	9.108E-04				
595.400	503.045	4149.323	11369.243	-1.057E-04	1.063E-03				
596.400	502.875	4149.582	11872.198	-9.843E-05	1.058E-03				
597.400	503.011	4149.834	12375.129	-1.021E-04	9.831E-04				
598.400	502.952	4150.102	12878.010	-1.233E-04	8.762E-04				
599.400	502.850	4150.363	13380.834	-1.227E-04	1.010E-03				
600.400	502.928	4150.597	13883.723	-9.661E-05	1.151E-03				
601.400	502.855	4150.848	14386.533	-1.142E-04	1.125E-03				
602.400	502.870	4151.080	14889.368	-1.179E-04	1.064E-03				
603.400	502.651	4151.325	15392.207	-1.021E-04	9.497E-04				
604.400	502.787	4151.555	15894.974	-1.167E-04	1.046E-03				
605.400	502.894	4151.799	16397.772	-1.009E-04	1.043E-03				
606.400	502.855	4152.022	16900.593	-1.063E-04	9.327E-04				
607.400	502.884	4152.246	17403.414	-1.082E-04	9.873E-04				
608.400	502.831	4152.459	17906.277	-1.106E-04	1.023E-03				
609.400	502.943	4152.677	18409.090	-1.136E-04	9.855E-04				
610.400	502.962	4152.851	18912.025	-1.112E-04	9.351E-04				
611.400	502.826	4153.089	19414.896	-1.142E-04	8.944E-04				
612.400	502.787	4153.306	19917.755	-1.033E-04	1.084E-03				
613.400	502.782	4153.525	20420.652	-1.142E-04	1.012E-03				
614.400	502.972	4153.711	20923.521	-1.197E-04	8.288E-04				
615.400	502.880	4153.881	21426.409	-1.167E-04	9.807E-04				
616.400	502.865	4154.083	21929.302	-1.239E-04	9.400E-04				
617.400	502.675	4154.307	22432.171	-1.161E-04	9.418E-04				
618.400	502.763	4154.533	22935.045	-9.782E-05	1.103E-03				
619.400	502.816	4154.710	23437.883	-1.075E-04	1.021E-03				
620.400	502.928	4154.900	23940.771	-1.063E-04	1.001E-03				
621.400	502.850	4155.092	24443.628	-1.112E-04	9.345E-04				
622.400	502.928	4155.280	24946.592	-1.215E-04	1.054E-03				
623.400	502.909	4155.490	25449.499	-1.142E-04	9.539E-04				
624.400	502.986	4155.640	25952.408	-1.063E-04	1.077E-03				
625.400	503.055	4155.867	26455.301	-1.215E-04	9.248E-04				
626.400	502.729	4156.034	26958.178	-1.063E-04	1.032E-03				
627.400	502.846	4156.216	27461.025	-1.027E-04	1.065E-03				
628.400	502.909	4156.411	27963.879	-1.173E-04	9.989E-04				
629.400	502.972	4156.594	28466.770	-1.009E-04	1.027E-03				
630.000	502.952	4156.688	28768.522	-1.124E-04	1.048E-03				
630.200	3.481	4124.228	28769.218	-1.094E-04	9.910E-04				
630.600	3.199	4123.852	28770.456	-1.221E-04	1.027E-03				
631.400	3.005	4123.348	28772.879	-1.264E-04	9.509E-04				
632.400	3.010	4122.868	28775.866	-1.124E-04	9.187E-04				
633.400	3.010	4122.488	28778.801	-1.276E-04	1.004E-03				
634.400	2.878	4122.131	28781.776	-1.088E-04	1.016E-03				
635.400	2.985	4121.813	28784.679	-1.057E-04	1.053E-03				
636.400	2.786	4121.516	28787.571	-1.173E-04	8.622E-04				
637.400	2.844	4121.287	28790.438	-1.142E-04	9.071E-04				
638.400	2.922	4121.078	28793.337	-1.033E-04	9.479E-04				
639.400	3.014	4120.848	28796.278	-1.136E-04	1.037E-03				
640.400	3.039	4120.615	28799.295	-1.003E-04	9.545E-04				
641.400	2.810	4120.434	28802.238	-9.843E-05	1.016E-03				
642.400	2.946	4120.287	28805.126	-1.009E-04	1.065E-03				
643.400	3.039	4120.149	28808.098	-1.124E-04	9.199E-04				
644.400	3.010	4119.991	28811.003	-1.069E-04	1.049E-03				
645.400	2.976	4119.842	28814.020	-1.130E-04	1.034E-03				
646.400	3.082	4119.718	28817.041	-1.057E-04	9.612E-04				
647.400	2.941	4119.596	28819.977	-1.136E-04	1.032E-03				
648.400	2.980	4119.416	28822.908	-1.136E-04	9.175E-04				
649.400	2.951	4119.375	28825.836	-1.021E-04	1.113E-03				
650.400	2.796	4119.233	28828.680	-1.063E-04	1.047E-03				
651.400	2.976	4119.136	28831.539	-1.075E-04	1.051E-03				
652.400	2.864	4119.067	28834.452	-1.355E-04	1.168E-03				
653.400	2.956	4118.916	28837.366	-1.142E-04	1.029E-03				
654.400	2.815	4118.844	28840.214	-1.027E-04	1.066E-03				
655.400	3.073	4118.795	28843.122	-1.112E-04	1.013E-03				
656.400	2.951	4118.722	28846.048	-1.148E-04	1.039E-03				
657.400	2.917	4118.590	28848.978	-1.118E-04	1.016E-03				
658.400	2.864	4118.575	28851.873	-9.843E-05	9.807E-04				
659.400	3.034	4118.521	28854.853	-9.782E-05	9.673E-04				
660.400	3.102	4118.455	28857.853	-8.992E-05	1.015E-03				
661.400	2.956	4118.412	28860.838	-9.965E-05	9.910E-04				
662.400	2.980	4118.350	28863.813	-1.009E-04	1.065E-03				
663.400	2.990	4118.307	28866.817	-1.003E-04	1.000E-03				
664.400	3.029	4118.250	28869.772	-1.045E-04	1.002E-03				
665.400	2.980	4118.196	28872.782	-1.124E-04	9.187E-04				
666.400	2.912	4118.108	28875.624	-1.094E-04	8.932E-04				
667.400	2.966	4118.101	28878.609	-1.331E-04	8.683E-04				
668.400	2.888	4118.025	28881.496	-9.661E-05	9.369E-04				
669.400	2.922	4117.990	28884.361	-1.094E-04	9.728E-04				
670.400	2.835	4117.939	28887.239	-1.124E-04	9.995E-04				
671.400	2.922	4117.920	28890.114	-1.082E-04	1.013E-03				
672.400	2.893	4117.889	28893.009	-1.167E-04	1.064E-03				
673.400	2.941	4117.840	28895.971	-1.063E-04	1.078E-03				
674.400	2.888	4117.789	28898.918	-1.112E-04	9.916E-04				
675.400	2.839	4117.763	28901.840	-1.051E-04	9.867E-04				
676.400	2.917	4117.736	28904.743	-1.088E-04	1.044E-03				
677.400	2.883	4117.734	28907.585	-1.063E-04	9.485E-04				
678.400	2.752	4117.663	28910.450	-1.003E-04	1.028E-03				
679.400	2.951	4117.676	28913.328	-1.027E-04	1.105E-03				
680.400	2.971	4117.644	28916.302	-9.782E-05	9.952E-04				
681.400	2.820	4117.576	28919.235	-1.075E-04	1.076E-03				
682.400	2.971	4117.589	28922.165	-1.136E-04	1.027E-03				
683.400	2.893	4117.545	28925.030	-1.027E-04	9.928E-04				
684.400	2.971	4117.560	28927.917	-1.161E-04	9.928E-04				
685.400	3.000	4117.498	28930.834	-1.179E-04	1.021E-03				
686.400	2.820	4117.487	28933.756	-1.015E-04	9.807E-04				
687.400	2.907	4117.443	28936.611	-1.082E-04	1.143E-03				
688.400	2.820	4117.469	28939.507	-9.479E-05	9.053E-04				
689.400	2.854	4117.453	28942.392	-1.148E-04	9.430E-04				
690.400	2.883	4117.401	28945.253	-1.154E-04	9.418E-04				
691.400	2.912	4117.397	28948.175	-1.136E-04	1.045E-03				
692.400	2.990	4117.393	28951.115	-1.227E-04	9.776E-04				
693.400	2.893	4117.368	28954.002	-1.063E-04	1.078E-03				
694.400	2.878	4117.336	28956.921	-1.027E-04	1.001E-03				
695.400	2.791	4117.336	28959.763	-1.100E-04	9.527E-04				
696.400	2.956	4117.308	28962.639	-9.965E-05	1.004E-03				
697.400	3.121	4117.303	28965.651	-1.246E-04	1.085E-03				
698.400	2.888	4117.298	28968.590	-1.045E-04	9.509E-04				
699.400	3.019	4117.264	28971.521	-1.088E-04	1.057E-03				
700.400	2.946	4117.269	28974.472	-9.722E-05	1.026E-03				
701.400	2.922	4117.228	28977.406	-1.069E-04	1.029E-03				
702.400	2.937	4117.228	28980.288	-1.027E-04	9.886E-04				
703.400	2.800	4117.207	28983.198	-1.033E-04	1.105E-03				
704.400	2.888	4117.235	28986.139	-1.045E-04	1.085E-03				
705.400	2.995	4117.201	28989.046	-9.175E-05	1.002E-03				
706.400	2.869	4117.188	28991.959	-1.258E-04	1.001E-03				
707.400	2.810	4117.174	28994.898	-1.173E-04	9.989E-04				
708.400	2.985	4117.111	28997.772	-1.136E-04	9.381E-04				
709.400	2.796	4117.146	29000.689	-1.063E-04	9.272E-04				
710.400	2.864	4117.146	29003.540	-1.009E-04	9.752E-04				
711.400	2.980	4117.114	29006.481	-9.965E-05	9.630E-04				
712.400	2.985	4117.134	29009.462	-1.082E-04	9.242E-04				
713.400	2.907	4117.140	29012.392	-1.003E-04	9.302E-04				
714.400	3.010	4117.051	29015.347	-1.118E-04	9.946E-04				
715.400	2.835	4117.107	29018.274	-1.185E-04	1.002E-03				
716.400	2.752	4117.059	29021.065	-1.027E-04	9.290E-04				
717.400	2.728	4117.060	29023.870	-1.197E-04	9.515E-04				
718.400	2.946	4117.063	29026.754	-1.063E-04	1.040E-03				
719.400	3.010	4117.070	29029.669	-9.904E-05	1.065E-03				
720.400	2.985	4117.040	29032.660	-1.045E-04	9.424E-04				
721.400	3.039	4117.068	29035.612	-1.057E-04	9.703E-04				
722.400	2.907	4117.019	29038.551	-1.082E-04	9.314E-04				
723.400	2.912	4117.004	29041.466	-1.094E-04	9.539E-04				
724.400	2.737	4117.013	29044.294	-9.782E-05	1.007E-03				
725.400	2.825	4117.003	29047.119	-1.063E-04	1.038E-03				
726.400	2.732	4116.985	29049.988	-1.045E-04	9.576E-04				
727.400	2.849	4117.011	29052.870	-1.057E-04	1.021E-03				
728.400	2.849	4116.980	29055.735	-1.185E-04	1.073E-03				
729.400	2.689	4116.970	29058.527	-1.161E-04	1.072E-03				
730.400	2.903	4116.959	29061.369	-9.782E-05	9.339E-04				
731.400	2.747	4116.931	29064.196	-9.965E-05	1.018E-03				
732.400	2.844	4116.949	29067.019	-1.124E-04	1.024E-03				
733.400	2.786	4116.935	29069.843	-1.288E-04	1.131E-03				
734.400	2.941	4116.901	29072.704	-9.965E-05	9.643E-04				
735.400	2.927	4116.905	29075.569	-1.161E-04	9.248E-04				
736.400	2.956	4116.873	29078.478	-1.276E-04	1.031E-03				
737.400	2.776	4116.916	29081.360	-1.112E-04	1.069E-03				
738.400	3.010	4116.916	29084.242	-1.051E-04	9.630E-04				
739.400	2.854	4116.899	29087.124	-1.082E-04	9.776E-04				
740.400	2.742	4116.912	29089.918	-1.100E-04	8.354E-04				
741.400	2.835	4116.858	29092.810	-1.124E-04	8.968E-04				
742.400	2.912	4116.916	29095.638	-1.094E-04	9.880E-04				
743.400	2.796	4116.868	29098.469	-1.203E-04	9.211E-04				
744.400	2.849	4116.888	29101.288	-1.191E-04	1.025E-03				
745.400	2.849	4116.897	29104.126	-1.021E-04	9.278E-04				
746.400	2.762	4116.848	29106.934	-1.057E-04	9.108E-04				
747.400	2.907	4116.897	29109.789	-1.239E-04	1.188E-03				
748.400	2.796	4116.859	29112.700	-1.082E-04	1.077E-03				
749.400	2.796	4116.854	29115.522	-1.154E-04	8.822E-04				
750.000	2.820	4116.811	29117.167	-1.033E-04	1.032E-03				
750.200	-496.651	4084.355	29017.836	-1.021E-04	9.971E-04				
750.600	-497.084	4083.860	28819.027	-1.094E-04	1.116E-03				
751.400	-497.050	4083.210	28421.423	-9.479E-05	1.017E-03				
752.400	-497.031	4082.581	27924.402	-9.357E-05	1.054E-03				
753.400	-497.121	4081.938	27427.391	-1.063E-04	1.043E-03				
754.400	-497.045	4081.466	26930.414	-8.810E-05	1.063E-03				
755.400	-497.084	4080.938	26433.332	-9.722E-05	9.643E-04				
756.400	-497.089	4080.472	25936.186	-1.088E-04	1.024E-03				
757.400	-497.172	4080.085	25439.100	-1.161E-04	1.145E-03				
758.400	-497.106	4079.637	24942.011	-9.965E-05	9.959E-04				
759.400	-497.162	4079.283	24444.847	-1.106E-04	1.005E-03				
760.400	-497.145	4078.918	23947.708	-1.069E-04	1.051E-03				
761.400	-497.223	4078.546	23450.560	-1.136E-04	1.140E-03				
762.400	-497.162	4078.157	22953.411	-1.039E-04	1.010E-03				
763.400	-497.023	4077.813	22456.247	-1.045E-04	9.272E-04				
764.400	-497.159	4077.554	21959.154	-1.051E-04	9.971E-04				
765.400	-497.087	4077.252	21462.170	-9.782E-05	9.813E-04				
766.400	-497.198	4076.952	20965.076	-9.965E-05	9.011E-04				
767.400	-497.087	4076.666	20468.008	-1.082E-04	9.667E-04				
768.400	-497.001	4076.361	19970.955	-1.094E-04	1.033E-03				
769.400	-497.057	4076.067	19473.843	-1.161E-04	1.057E-03				
770.400	-497.091	4075.807	18976.786	-9.843E-05	9.339E-04				
771.400	-497.065	4075.557	18479.731	-9.661E-05	1.058E-03				
772.400	-497.040	4075.261	17982.632	-1.057E-04	1.065E-03				
773.400	-497.128	4075.060	17485.550	-1.258E-04	1.057E-03				
774.400	-497.035	4074.765	16988.466	-9.782E-05	9.436E-04				
775.400	-497.220	4074.546	16491.360	-9.114E-05	9.995E-04				
776.400	-497.140	4074.321	15994.293	-1.033E-04	9.722E-04				
777.400	-497.123	4074.080	15497.120	-1.100E-04	1.047E-03				
778.400	-497.099	4073.819	14999.987	-1.185E-04	9.351E-04				
779.400	-497.040	4073.626	14502.959	-1.069E-04	1.003E-03				
780.400	-497.116	4073.356	14005.807	-9.965E-05	1.111E-03				
781.400	-497.089	4073.200	13508.631	-1.021E-04	1.094E-03				
782.400	-497.031	4072.976	13011.552	-8.689E-05	9.321E-04				
783.400	-497.062	4072.762	12514.439	-1.039E-04	1.002E-03				
784.400	-497.052	4072.546	12017.362	-1.063E-04	1.145E-03				
785.400	-497.113	4072.334	11520.223	-1.088E-04	1.012E-03				
786.400	-497.242	4072.131	11023.090	-9.843E-05	1.040E-03				
787.400	-497.087	4071.949	10525.963	-1.039E-04	1.049E-03				
788.400	-497.189	4071.750	10028.810	-1.015E-04	1.024E-03				
789.400	-497.152	4071.557	9531.631	-1.246E-04	9.272E-04				
790.400	-497.162	4071.324	9034.500	-1.057E-04	9.734E-04				
791.400	-497.159	4071.179	8537.368	-1.106E-04	9.837E-04				
792.400	-497.123	4070.972	8040.270	-1.015E-04	8.804E-04				
793.400	-497.072	4070.799	7543.206	-1.033E-04	1.026E-03				
794.400	-497.133	4070.621	7046.144	-1.069E-04	1.003E-03				
795.400	-496.999	4070.444	6549.060	-9.965E-05	1.005E-03				
796.400	-497.014	4070.228	6051.960	-8.689E-05	1.145E-03				
797.400	-496.977	4070.087	5554.871	-9.904E-05	9.764E-04				
798.400	-497.009	4069.883	5057.819	-1.215E-04	8.525E-04				
799.400	-497.052	4069.740	4560.769	-1.045E-04	9.509E-04				
800.400	-497.213	4069.509	4063.671	-1.167E-04	1.009E-03				
801.400	-497.009	4069.376	3566.586	-9.418E-05	1.021E-03				
802.400	-497.155	4069.159	3069.506	-1.039E-04	1.073E-03				
803.400	-497.067	4068.933	2572.394	-1.130E-04	1.011E-03				
804.000	-496.984	4068.900	2274.177	-1.179E-04	9.314E-04				
804.200	2.562	4101.388	2274.689	-1.221E-04	1.066E-03				
804.600	2.771	4101.789	2275.789	-1.246E-04	1.026E-03				
805.400	2.907	4102.330	2278.094	-1.142E-04	1.075E-03				
806.400	2.980	4102.745	2281.001	-1.100E-04	9.898E-04				
807.400	2.951	4103.186	2283.865	-1.009E-04	9.971E-04				
808.400	2.815	4103.514	2286.751	-1.112E-04	1.098E-03				
809.400	2.762	4103.757	2289.575	-9.235E-05	1.019E-03				
810.400	2.859	4104.054	2292.436	-1.112E-04	9.242E-04				
811.400	2.679	4104.354	2295.256	-1.069E-04	1.046E-03				
812.400	2.937	4104.548	2298.107	-1.167E-04	9.861E-04				
813.400	2.820	4104.779	2300.973	-9.965E-05	1.129E-03				
814.400	2.907	4104.982	2303.874	-1.027E-04	1.077E-03				
815.400	2.728	4105.128	2306.595	-1.009E-04	9.509E-04				
816.400	2.752	4105.308	2309.384	-1.033E-04	1.010E-03				
817.400	2.873	4105.487	2312.189	-9.235E-05	1.085E-03				
818.400	2.708	4105.593	2314.959	-1.088E-04	9.679E-04				
819.400	2.625	4105.729	2317.651	-1.130E-04	1.008E-03				
820.400	2.835	4105.872	2320.516	-1.009E-04	1.015E-03				
821.400	2.888	4106.019	2323.385	-1.136E-04	9.916E-04				
822.400	2.747	4106.143	2326.180	-1.094E-04	1.112E-03				
823.400	2.791	4106.162	2328.930	-1.142E-04	9.564E-04				
824.400	2.679	4106.285	2331.602	-1.045E-04	9.831E-04				
825.400	2.796	4106.403	2334.285	-9.539E-05	9.788E-04				
826.400	2.708	4106.498	2336.954	-1.003E-04	9.892E-04				
827.400	2.689	4106.586	2339.664	-1.136E-04	9.545E-04				
828.400	2.694	4106.660	2342.415	-1.173E-04	9.752E-04				
829.400	2.922	4106.788	2345.222	-9.782E-05	9.600E-04				
830.400	2.771	4106.842	2348.001	-1.069E-04	9.855E-04				
831.400	2.893	4106.932	2350.827	-1.118E-04	9.995E-04				
832.400	2.888	4106.953	2353.692	-1.003E-04	1.099E-03				
833.400	2.732	4107.074	2356.453	-1.136E-04	1.026E-03				
834.400	2.907	4107.087	2359.292	-1.015E-04	1.035E-03				
835.400	2.796	4107.143	2362.128	-1.021E-04	1.069E-03				
836.400	2.825	4107.207	2364.909	-1.057E-04	1.043E-03				
837.400	2.835	4107.271	2367.808	-1.118E-04	9.928E-04				
838.400	2.941	4107.353	2370.700	-9.539E-05	1.065E-03				
839.400	2.961	4107.373	2373.588	-1.167E-04	9.752E-04				
840.400	2.723	4107.413	2376.400	-1.075E-04	1.088E-03				
841.400	2.985	4107.420	2379.363	-9.965E-05	1.067E-03				
842.400	2.864	4107.487	2382.278	-1.088E-04	8.883E-04				
843.400	2.854	4107.529	2385.136	-9.235E-05	9.643E-04				
844.400	2.830	4107.544	2388.016	-9.904E-05	1.043E-03				
845.400	2.869	4107.613	2390.926	-1.033E-04	1.038E-03				
846.400	2.776	4107.637	2393.745	-8.385E-05	9.606E-04				
847.400	2.878	4107.661	2396.586	-1.161E-04	9.728E-04				
848.400	2.835	4107.728	2399.456	-9.722E-05	9.649E-04				
849.400	2.645	4107.760	2402.337	-1.051E-04	1.028E-03				
850.400	2.898	4107.732	2405.204	-1.033E-04	9.132E-04				
851.400	2.888	4107.805	2408.107	-1.051E-04	9.551E-04				
852.400	2.907	4107.792	2410.923	-1.136E-04	9.175E-04				
853.400	2.800	4107.857	2413.726	-1.075E-04	9.272E-04				
854.400	2.835	4107.859	2416.506	-9.782E-05	1.027E-03				
855.400	2.912	4107.883	2419.361	-9.904E-05	9.861E-04				
856.400	2.956	4107.945	2422.252	-9.418E-05	9.959E-04				
857.400	2.800	4107.959	2425.138	-1.045E-04	1.050E-03				
858.400	2.771	4107.948	2427.919	-1.045E-04	9.995E-04				
859.400	2.927	4108.041	2430.696	-1.039E-04	9.831E-04				
860.400	2.689	4107.997	2433.501	-1.057E-04	9.576E-04				
861.400	2.864	4108.073	2436.267	-1.045E-04	9.819E-04				
862.400	2.815	4108.066	2439.093	-9.296E-05	1.064E-03				
863.400	2.893	4108.067	2441.921	-1.082E-04	1.015E-03				
864.400	2.742	4108.081	2444.678	-1.039E-04	8.962E-04				
865.400	2.883	4108.075	2447.505	-1.015E-04	9.491E-04				
866.400	2.932	4108.137	2450.370	-1.215E-04	1.096E-03				
867.400	2.971	4108.128	2453.266	-1.130E-04	1.060E-03				
868.400	2.810	4108.142	2456.077	-9.782E-05	1.004E-03				
869.400	2.732	4108.193	2458.827	-1.100E-04	9.503E-04				
870.400	2.883	4108.193	2461.690	-1.088E-04	9.728E-04				
871.400	2.937	4108.211	2464.520	-9.722E-05	8.755E-04				
872.400	2.864	4108.214	2467.406	-9.904E-05	8.604E-04				
873.400	2.810	4108.202	2470.213	-1.045E-04	9.442E-04				
874.400	2.854	4108.266	2473.048	-1.161E-04	9.758E-04				
875.400	2.655	4108.264	2475.877	-1.045E-04	9.041E-04				
876.400	2.878	4108.268	2478.694	-1.003E-04	8.531E-04				
877.400	2.689	4108.284	2481.447	-1.021E-04	1.040E-03				
878.400	2.737	4108.285	2484.214	-1.136E-04	1.072E-03				
879.400	2.732	4108.293	2487.075	-1.039E-04	1.020E-03				
880.400	2.825	4108.300	2489.926	-1.039E-04	9.758E-04				
881.400	2.723	4108.312	2492.624	-1.088E-04	1.099E-03				
882.400	2.771	4108.325	2495.448	-8.992E-05	1.042E-03				
883.400	2.645	4108.350	2498.163	-9.661E-05	8.743E-04				
884.400	2.655	4108.345	2500.917	-9.600E-05	1.076E-03				
885.400	2.723	4108.385	2503.719	-1.209E-04	9.314E-04				
886.400	2.800	4108.362	2506.544	-1.142E-04	9.813E-04				
887.400	3.068	4108.379	2509.392	-1.021E-04	1.133E-03				
888.400	2.762	4108.400	2512.181	-8.992E-05	1.064E-03				
889.400	2.708	4108.395	2514.903	-1.082E-04	1.106E-03				
890.400	2.786	4108.403	2517.685	-1.069E-04	1.030E-03				
891.400	2.864	4108.436	2520.513	-1.063E-04	1.015E-03				
892.400	2.835	4108.446	2523.302	-1.106E-04	1.080E-03				
893.400	2.893	4108.426	2526.135	-1.106E-04	9.819E-04				
894.400	2.776	4108.453	2528.951	-9.843E-05	1.092E-03				
895.400	2.844	4108.430	2531.809	-1.252E-04	8.646E-04				
896.400	2.946	4108.450	2534.718	-1.191E-04	9.946E-04				
897.400	2.718	4108.478	2537.564	-1.154E-04	1.009E-03				
898.400	2.898	4108.488	2540.497	-1.045E-04	9.582E-04				
899.400	2.844	4108.474	2543.375	-1.027E-04	1.069E-03				
900.400	2.805	4108.505	2546.233	-9.053E-05	1.015E-03				
901.400	2.869	4108.499	2549.026	-1.197E-04	1.091E-03				
902.400	2.747	4108.500	2551.865	-8.446E-05	1.047E-03				
903.400	2.776	4108.461	2554.654	-1.252E-04	1.010E-03				
904.400	2.864	4108.492	2557.466	-1.209E-04	1.007E-03				
905.400	2.878	4108.485	2560.383	-9.296E-05	1.046E-03				
906.400	2.966	4108.547	2563.263	-9.661E-05	1.060E-03				
907.400	2.971	4108.545	2566.171	-9.296E-05	9.612E-04				
908.400	2.898	4108.501	2569.077	-1.015E-04	1.006E-03				
909.400	3.044	4108.572	2572.016	-1.167E-04	1.056E-03				
910.400	2.800	4108.527	2574.925	-1.069E-04	1.071E-03				
911.400	2.796	4108.577	2577.777	-9.722E-05	9.715E-04				
912.400	2.757	4108.521	2580.638	-1.082E-04	1.099E-03				
913.400	2.742	4108.575	2583.457	-9.843E-05	1.066E-03				
914.400	2.781	4108.589	2586.210	-1.063E-04	1.114E-03				
915.400	2.898	4108.587	2589.055	-1.039E-04	1.037E-03				
916.400	2.708	4108.607	2591.891	-9.661E-05	1.033E-03				
917.400	2.810	4108.596	2594.728	-9.722E-05	9.989E-04				
918.400	2.698	4108.608	2597.585	-1.100E-04	1.053E-03				
919.400	2.859	4108.624	2600.477	-9.904E-05	1.013E-03				
920.400	3.010	4108.628	2603.472	-1.021E-04	1.001E-03				
921.400	2.971	4108.644	2606.422	-9.235E-05	1.109E-03				
922.400	2.815	4108.625	2609.241	-1.057E-04	1.100E-03				
923.400	2.956	4108.647	2612.123	-1.179E-04	9.886E-04				
924.000	3.044	4108.610	2613.911	-9.539E-05	9.837E-04				
924.200	1251.676	4189.994	2864.246	-1.130E-04	1.048E-03				
924.600	1252.429	4191.103	3365.147	-1.094E-04	9.831E-04				
925.200	1252.560	4192.371	4116.610	-9.235E-05	9.521E-04				
925.800	1252.614	4193.442	4868.169	-9.904E-05	1.092E-03				
926.600	1252.692	4194.621	5870.240	-1.215E-04	9.886E-04				
927.400	1252.619	4195.773	6872.301	-8.081E-05	8.780E-04				
928.200	1252.619	4196.810	7874.357	-1.136E-04	9.886E-04				
929.200	1252.682	4197.999	9126.994	-1.112E-04	9.995E-04				
930.200	1252.463	4199.177	10379.495	-1.197E-04	1.151E-03				
931.200	1252.527	4200.237	11631.937	-1.027E-04	9.296E-04				
932.200	1252.614	4201.246	12884.474	-1.015E-04	9.709E-04				
933.200	1252.536	4202.187	14137.010	-1.015E-04	1.017E-03				
934.200	1252.483	4203.138	15389.552	-1.142E-04	1.047E-03				
935.200	1252.692	4203.988	16642.166	-1.136E-04	1.044E-03				
936.200	1252.497	4204.851	17894.793	-1.021E-04	1.103E-03				
937.200	1252.716	4205.693	19147.413	-1.088E-04	1.009E-03				
938.200	1252.415	4206.455	20400.053	-9.843E-05	9.594E-04				
939.200	1252.536	4207.228	21652.723	-1.233E-04	1.083E-03				
940.200	1252.629	4207.971	22905.338	-1.154E-04	1.000E-03				
941.200	1252.473	4208.701	24157.881	-1.045E-04	9.928E-04				
942.200	1252.546	4209.411	25410.540	-8.932E-05	1.054E-03				
943.200	1252.629	4210.102	26663.116	-1.039E-04	1.078E-03				
944.200	1252.556	4210.796	27915.640	-1.051E-04	9.357E-04				
945.200	1252.488	4211.495	29168.198	-1.100E-04	1.173E-03				
945.600	1252.483	4211.714	29669.220	-1.045E-04	1.032E-03				
945.800	3.802	4130.628	29669.981	-9.418E-05	9.156E-04				
946.200	3.082	4129.701	29671.213	-1.142E-04	1.069E-03				
947.000	2.791	4128.605	29673.512	-1.252E-04	9.551E-04				
948.000	2.747	4127.588	29676.321	-1.106E-04	9.618E-04				
949.000	2.878	4126.767	29679.218	-1.045E-04	9.983E-04				
950.000	2.951	4126.097	29682.091	-1.130E-04	1.037E-03				
951.000	2.946	4125.484	29684.973	-9.053E-05	1.069E-03				
952.000	2.728	4124.933	29687.881	-1.063E-04	1.031E-03				
953.000	2.791	4124.441	29690.718	-8.628E-05	1.044E-03				
954.000	2.878	4124.030	29693.550	-9.965E-05	9.290E-04				
955.000	2.757	4123.627	29696.363	-9.782E-05	9.594E-04				
956.000	2.791	4123.199	29699.211	-1.118E-04	9.235E-04				
957.000	2.951	4122.861	29702.103	-9.722E-05	1.013E-03				
958.000	2.941	4122.580	29704.981	-1.082E-04	1.074E-03				
959.000	2.820	4122.287	29707.802	-1.112E-04	1.111E-03				
960.000	2.849	4122.001	29710.716	-1.106E-04	9.533E-04				
961.000	2.781	4121.755	29713.528	-9.843E-05	1.020E-03				
962.000	2.907	4121.522	29716.404	-1.148E-04	9.904E-04				
963.000	2.752	4121.307	29719.229	-1.130E-04	9.959E-04				
964.000	2.796	4121.080	29722.115	-1.039E-04	9.849E-04				
965.000	2.810	4120.871	29724.968	-1.094E-04	1.058E-03				
966.000	2.990	4120.723	29727.848	-1.045E-04	9.813E-04				
967.000	2.956	4120.508	29730.728	-1.045E-04	1.012E-03				
968.000	2.708	4120.353	29733.534	-1.069E-04	9.855E-04				
969.000	2.815	4120.195	29736.364	-1.003E-04	1.057E-03				
970.000	2.907	4120.074	29739.281	-1.015E-04	1.171E-03				
971.000	2.971	4119.939	29742.222	-1.124E-04	9.940E-04				
972.000	2.757	4119.785	29745.079	-1.197E-04	1.014E-03				
973.000	2.728	4119.675	29747.932	-9.904E-05	1.038E-03				
974.000	2.805	4119.524	29750.763	-1.027E-04	1.077E-03				
975.000	2.766	4119.454	29753.586	-1.088E-04	1.096E-03				
976.000	2.966	4119.327	29756.483	-1.021E-04	9.734E-04				
977.000	2.815	4119.243	29759.373	-1.069E-04	9.430E-04				
978.000	2.679	4119.157	29762.121	-1.191E-04	1.147E-03				
979.000	2.907	4119.048	29764.994	-1.057E-04	1.044E-03				
980.000	2.849	4118.972	29767.912	-1.136E-04	9.515E-04				
981.000	2.927	4118.886	29770.729	-1.069E-04	1.015E-03				
982.000	2.907	4118.798	29773.613	-1.124E-04	9.983E-04				
983.000	2.859	4118.719	29776.533	-1.124E-04	1.024E-03				
984.000	2.830	4118.682	29779.404	-1.106E-04	8.336E-04				
985.000	2.869	4118.565	29782.276	-1.021E-04	9.880E-04				
986.000	2.781	4118.539	29785.114	-1.148E-04	9.928E-04				
987.000	2.815	4118.451	29787.943	-1.009E-04	1.001E-03				
988.000	2.941	4118.419	29790.810	-1.106E-04	1.007E-03				
989.000	2.776	4118.327	29793.659	-1.021E-04	1.037E-03				
990.000	2.883	4118.312	29796.556	-1.100E-04	1.074E-03				
991.000	2.976	4118.251	29799.446	-1.082E-04	9.959E-04				
992.000	2.825	4118.220	29802.244	-1.215E-04	9.509E-04				
993.000	2.912	4118.155	29805.086	-1.069E-04	8.409E-04				
994.000	2.800	4118.123	29807.884	-1.057E-04	8.391E-04				
995.000	2.752	4118.099	29810.705	-1.009E-04	1.107E-03				
996.000	2.927	4118.063	29813.595	-1.021E-04	9.971E-04				
997.000	2.849	4117.982	29816.458	-1.063E-04	9.150E-04				
998.000	2.815	4117.975	29819.418	-1.057E-04	9.406E-04				
999.000	2.907	4117.909	29822.365	-1.124E-04	9.691E-04				
1000.000	2.854	4117.867	29825.226	-1.100E-04	1.134E-03				
1001.000	2.917	4117.870	29828.115	-9.904E-05	9.193E-04				
1002.000	2.961	4117.820	29831.062	-9.661E-05	1.010E-03				
1003.000	2.898	4117.787	29833.887	-9.843E-05	1.134E-03				
1004.000	3.044	4117.715	29836.815	-1.197E-04	1.007E-03				
1005.000	2.766	4117.722	29839.659	-1.106E-04	9.898E-04				
1006.000	3.044	4117.680	29842.583	-1.015E-04	1.007E-03				
1007.000	3.048	4117.651	29845.591	-1.003E-04	1.071E-03				
1008.000	3.029	4117.641	29848.534	-1.033E-04	9.643E-04				
1009.000	2.995	4117.615	29851.534	-9.904E-05	1.063E-03				
1010.000	2.839	4117.608	29854.481	-1.209E-04	1.143E-03				
1011.000	2.864	4117.570	29857.361	-1.094E-04	9.807E-04				
1012.000	2.752	4117.505	29860.229	-1.069E-04	1.001E-03				
1013.000	2.917	4117.538	29863.150	-1.033E-04	9.576E-04				
1014.000	2.766	4117.509	29865.963	-1.118E-04	9.436E-04				
1015.000	2.762	4117.504	29868.862	-1.009E-04	9.746E-04				
1016.000	2.903	4117.465	29871.712	-1.075E-04	9.837E-04				
1017.000	2.839	4117.476	29874.538	-9.843E-05	9.090E-04				
1018.000	2.951	4117.411	29877.432	-1.270E-04	9.989E-04				
1019.000	2.703	4117.425	29880.274	-1.130E-04	1.127E-03				
1020.000	2.932	4117.417	29883.163	-1.075E-04	9.606E-04				
1021.000	2.747	4117.394	29885.994	-1.142E-04	9.618E-04				
1022.000	2.786	4117.393	29888.958	-1.136E-04	1.134E-03				
1023.000	2.956	4117.358	29891.901	-1.003E-04	9.169E-04				
1024.000	3.014	4117.324	29894.804	-1.045E-04	9.472E-04				
1025.000	2.815	4117.312	29897.642	-1.100E-04	9.667E-04				
1026.000	2.786	4117.324	29900.455	-1.088E-04	1.020E-03				
1027.000	2.805	4117.300	29903.349	-9.600E-05	1.056E-03				
1028.000	2.951	4117.251	29906.305	-9.843E-05	1.111E-03				
1029.000	2.990	4117.262	29909.218	-1.179E-04	9.813E-04				
1030.000	2.907	4117.295	29912.149	-1.063E-04	1.027E-03				
1031.000	2.937	4117.252	29915.058	-1.082E-04	9.734E-04				
1032.000	2.922	4117.274	29918.009	-1.221E-04	1.007E-03				
1033.000	2.679	4117.225	29920.881	-1.003E-04	1.001E-03				
1034.000	2.893	4117.238	29923.777	-9.782E-05	1.051E-03				
1035.000	2.776	4117.222	29926.605	-1.179E-04	9.485E-04				
1036.000	2.951	4117.196	29929.493	-9.843E-05	9.959E-04				
1037.000	3.053	4117.167	29932.432	-9.296E-05	9.108E-04				
1038.000	2.869	4117.177	29935.322	-9.965E-05	1.067E-03				
1039.000	2.835	4117.152	29938.242	-1.009E-04	1.072E-03				
1040.000	2.980	4117.188	29941.187	-1.161E-04	1.017E-03				
1041.000	2.995	4117.139	29944.166	-1.142E-04	9.132E-04				
1042.000	2.917	4117.188	29947.058	-1.233E-04	1.065E-03				
1043.000	2.737	4117.156	29949.940	-1.130E-04	8.695E-04				
1044.000	3.092	4117.142	29952.896	-1.100E-04	9.995E-04				
1045.000	2.805	4117.120	29955.826	-1.051E-04	1.049E-03				
1046.000	2.737	4117.111	29958.664	-1.088E-04	9.880E-04				
1047.000	2.903	4117.114	29961.512	-9.418E-05	9.928E-04				
1048.000	2.854	4117.078	29964.350	-1.124E-04	1.021E-03				
1049.000	2.762	4117.124	29967.171	-9.053E-05	1.021E-03				
1050.000	2.907	4117.111	29970.070	-1.106E-04	1.004E-03				
1051.000	2.728	4117.045	29972.925	-9.600E-05	1.052E-03				
1052.000	2.903	4117.083	29975.803	-1.130E-04	1.024E-03				
1053.000	2.854	4117.095	29978.724	-1.094E-04	1.151E-03				
1054.000	2.766	4117.079	29981.548	-1.112E-04	1.004E-03				
1055.000	2.956	4117.081	29984.436	-1.148E-04	1.021E-03				
1056.000	2.903	4117.035	29987.267	-1.003E-04	1.021E-03				
1057.000	2.713	4117.027	29990.065	-9.296E-05	9.509E-04				
1058.000	2.883	4117.011	29992.926	-1.094E-04	9.199E-04				
1059.000	2.732	4117.039	29995.766	-1.161E-04	1.059E-03				
1060.000	2.723	4116.996	29998.594	-1.003E-04	9.989E-04				
1061.000	2.776	4117.003	30001.459	-9.782E-05	9.758E-04				
1062.000	2.990	4116.979	30004.379	-1.082E-04	8.610E-04				
1063.000	2.723	4116.998	30007.212	-9.904E-05	9.472E-04				
1064.000	2.888	4117.003	30010.122	-1.203E-04	1.044E-03				
1065.000	2.864	4116.971	30012.959	-1.148E-04	9.515E-04				
1065.600	2.830	4116.995	30014.685	-1.154E-04	1.035E-03				
1065.800	-1245.759	4035.656	29765.533	-9.235E-05	9.460E-04				
1066.200	-1246.651	4034.480	29266.951	-1.015E-04	9.673E-04				
1066.800	-1246.733	4033.238	28518.951	-9.053E-05	1.032E-03				
1067.400	-1246.857	4032.157	27770.851	-1.033E-04	1.004E-03				
1068.200	-1246.823	4030.871	26773.321	-9.418E-05	1.047E-03				
1069.000	-1246.923	4029.733	25775.753	-1.136E-04	9.995E-04				
1069.800	-1246.857	4028.700	24778.212	-9.114E-05	1.085E-03				
1070.600	-1246.833	4027.693	23780.722	-9.296E-05	1.040E-03				
1071.600	-1246.984	4026.546	22533.733	-9.661E-05	9.709E-04				
1072.600	-1246.882	4025.466	21286.779	-1.045E-04	1.010E-03				
1073.600	-1247.001	4024.390	20039.759	-1.021E-04	9.977E-04				
1074.600	-1247.011	4023.486	18792.776	-1.106E-04	9.758E-04				
1075.600	-1246.947	4022.545	17545.757	-1.003E-04	1.088E-03				
1076.600	-1246.996	4021.646	16298.738	-1.063E-04	1.024E-03				
1077.600	-1246.979	4020.785	15051.715	-9.235E-05	1.045E-03				
1078.600	-1247.149	4020.017	13804.642	-9.722E-05	1.048E-03				
1079.600	-1247.018	4019.223	12557.636	-1.003E-04	1.006E-03				
1080.600	-1247.091	4018.456	11310.585	-9.175E-05	9.643E-04				
1081.600	-1246.994	4017.710	10063.614	-9.904E-05	1.007E-03				
1082.600	-1247.093	4016.985	8816.503	-9.600E-05	1.032E-03				
1083.600	-1247.081	4016.312	7569.470	-1.009E-04	9.187E-04				
1084.600	-1247.071	4015.646	6322.402	-8.567E-05	9.959E-04				
1085.600	-1246.964	4014.971	5075.351	-9.661E-05	1.023E-03				
1086.600	-1247.035	4014.359	3828.358	-1.069E-04	1.011E-03				
1087.200	-1247.088	4013.968	3080.105	-1.075E-04	9.703E-04				
1087.400	1.814	4095.298	3080.468	-1.009E-04	1.072E-03				
1087.800	2.518	4096.221	3081.446	-1.045E-04	1.015E-03				
1088.600	2.650	4097.302	3083.578	-1.051E-04	1.036E-03				
1089.600	2.839	4098.335	3086.364	-1.112E-04	1.035E-03				
1090.600	2.805	4099.152	3089.195	-1.100E-04	1.069E-03				
1091.600	2.844	4099.771	3092.084	-1.197E-04	1.034E-03				
1092.600	2.859	4100.410	3094.978	-1.106E-04	1.021E-03				
1093.600	2.791	4100.923	3097.867	-1.167E-04	1.051E-03				
1094.600	2.888	4101.426	3100.732	-1.033E-04	1.040E-03				
1095.600	2.873	4101.902	3103.585	-1.227E-04	9.867E-04				
1096.600	2.917	4102.280	3106.498	-1.039E-04	1.037E-03				
1097.600	2.844	4102.598	3109.343	-9.722E-05	9.551E-04				
1098.600	2.922	4102.968	3112.234	-1.191E-04	1.082E-03				
1099.600	2.980	4103.224	3115.210	-1.057E-04	9.892E-04				
1100.600	2.976	4103.543	3118.135	-1.033E-04	1.022E-03				
1101.600	2.966	4103.795	3121.102	-1.021E-04	9.880E-04				
1102.600	2.776	4104.052	3123.973	-1.136E-04	9.788E-04				
1103.600	2.912	4104.310	3126.883	-8.992E-05	8.737E-04				
1104.600	3.058	4104.504	3129.872	-1.063E-04	1.035E-03				
1105.600	2.844	4104.718	3132.766	-1.033E-04	1.116E-03				
1106.600	2.932	4104.875	3135.637	-1.112E-04	1.038E-03				
1107.600	2.907	4105.051	3138.467	-9.175E-05	1.074E-03				
1108.600	2.830	4105.250	3141.358	-1.100E-04	9.460E-04				
1109.600	3.010	4105.442	3144.336	-1.142E-04	9.952E-04				
1110.600	3.014	4105.577	3147.315	-1.033E-04	1.039E-03				
1111.600	3.092	4105.707	3150.285	-1.094E-04	9.855E-04				
1112.600	2.898	4105.848	3153.227	-1.075E-04	1.038E-03				
1113.600	2.961	4105.993	3156.154	-1.282E-04	1.017E-03				
1114.600	3.063	4106.070	3159.155	-9.965E-05	1.007E-03				
1115.600	3.034	4106.207	3162.070	-1.045E-04	1.001E-03				
1116.600	3.068	4106.320	3165.017	-1.063E-04	1.096E-03				
1117.600	2.956	4106.410	3167.994	-1.106E-04	8.999E-04				
1118.600	2.888	4106.477	3170.923	-8.932E-05	1.056E-03				
1119.600	2.869	4106.588	3173.740	-1.142E-04	9.971E-04				
1120.600	2.985	4106.685	3176.649	-1.100E-04	9.661E-04				
1121.600	2.917	4106.766	3179.500	-8.932E-05	8.895E-04				
1122.600	2.976	4106.851	3182.424	-9.661E-05	9.284E-04				
1123.600	2.820	4106.902	3185.309	-1.057E-04	1.025E-03				
1124.600	2.966	4107.011	3188.200	-1.100E-04	9.630E-04				
1125.600	2.922	4107.030	3191.054	-1.142E-04	1.043E-03				
1126.600	2.825	4107.131	3193.889	-1.161E-04	1.088E-03				
1127.600	2.898	4107.200	3196.683	-9.722E-05	9.594E-04				
1128.600	2.883	4107.238	3199.560	-1.179E-04	9.126E-04				
1129.600	2.883	4107.311	3202.387	-9.722E-05	9.588E-04				
1130.600	2.873	4107.402	3205.241	-1.021E-04	9.971E-04				
1131.600	2.810	4107.418	3208.134	-9.235E-05	1.064E-03				
1132.600	2.766	4107.473	3210.962	-1.082E-04	9.266E-04				
1133.600	2.742	4107.528	3213.752	-1.112E-04	8.841E-04				
1134.600	2.723	4107.523	3216.524	-1.082E-04	1.040E-03				
1135.600	2.878	4107.595	3219.366	-1.258E-04	1.068E-03				
1136.600	2.917	4107.644	3222.121	-1.003E-04	1.058E-03				
1137.600	2.893	4107.685	3224.965	-9.296E-05	1.064E-03				
1138.600	2.820	4107.716	3227.819	-9.965E-05	1.111E-03				
1139.600	2.815	4107.735	3230.654	-1.003E-04	1.108E-03				
1140.600	2.917	4107.820	3233.478	-1.027E-04	1.027E-03				
1141.600	2.995	4107.821	3236.424	-1.039E-04	1.061E-03				
1142.600	2.985	4107.879	3239.315	-1.075E-04	9.855E-04				
1143.600	2.820	4107.883	3242.195	-1.009E-04	1.027E-03				
1144.600	2.888	4107.941	3245.094	-8.992E-05	1.037E-03				
1145.600	2.830	4107.962	3247.911	-1.015E-04	9.661E-04				
1146.600	2.830	4107.985	3250.741	-1.130E-04	9.965E-04				
1147.600	2.888	4108.011	3253.614	-1.239E-04	9.339E-04				
1148.600	2.781	4108.020	3256.488	-1.051E-04	9.260E-04				
1149.600	2.723	4108.038	3259.250	-1.167E-04	1.035E-03				
1150.600	2.883	4108.062	3262.122	-1.221E-04	8.913E-04				
1151.600	2.888	4108.116	3264.975	-1.069E-04	1.058E-03				
1152.600	2.839	4108.133	3267.780	-1.045E-04	1.035E-03				
1153.600	2.980	4108.152	3270.613	-1.088E-04	9.156E-04				
1154.600	2.723	4108.159	3273.492	-1.252E-04	9.916E-04				
1155.600	2.810	4108.197	3276.314	-9.843E-05	1.011E-03				
1156.600	2.849	4108.192	3279.174	-9.296E-05	9.564E-04				
1157.600	2.835	4108.188	3282.029	-1.106E-04	9.995E-04				
1158.600	3.087	4108.212	3285.007	-1.142E-04	1.062E-03				
1159.600	2.976	4108.252	3288.021	-1.045E-04	1.051E-03				
1160.600	2.927	4108.268	3290.965	-9.904E-05	8.810E-04				
1161.600	2.932	4108.315	3293.862	-1.015E-04	1.074E-03				
1162.600	2.912	4108.336	3296.732	-1.203E-04	1.030E-03				
1163.600	2.776	4108.323	3299.638	-8.567E-05	1.107E-03				
1164.600	2.922	4108.348	3302.535	-1.112E-04	9.065E-04				
1165.600	3.024	4108.345	3305.532	-1.039E-04	1.013E-03				
1166.600	2.966	4108.370	3308.449	-1.142E-04	1.035E-03				
1167.600	2.937	4108.359	3311.331	-9.539E-05	9.594E-04				
1168.600	3.131	4108.415	3314.340	-1.118E-04	9.922E-04				
1169.600	3.039	4108.397	3317.337	-1.130E-04	1.032E-03				
1170.600	3.029	4108.438	3320.376	-1.082E-04	1.013E-03				
1171.600	2.859	4108.392	3323.240	-1.003E-04	1.050E-03				
1172.600	2.980	4108.471	3326.069	-1.063E-04	9.077E-04				
1173.600	2.810	4108.463	3328.931	-1.130E-04	1.028E-03				
1174.600	2.922	4108.468	3331.920	-1.136E-04	8.774E-04				
1175.600	2.869	4108.521	3334.911	-1.112E-04	1.083E-03				
1176.600	2.903	4108.496	3337.894	-1.215E-04	9.448E-04				
1177.600	3.005	4108.557	3340.903	-1.051E-04	9.661E-04				
1178.600	2.995	4108.554	3343.931	-1.015E-04	9.801E-04				
1179.600	2.708	4108.546	3346.766	-8.385E-05	1.043E-03				
1180.600	2.830	4108.556	3349.718	-1.094E-04	9.594E-04				
1181.600	2.835	4108.556	3352.640	-1.136E-04	1.065E-03				
1182.600	3.005	4108.524	3355.564	-1.015E-04	1.053E-03				
1183.600	2.917	4108.571	3358.483	-1.075E-04	9.752E-04				
1184.600	2.990	4108.586	3361.413	-1.197E-04	1.058E-03				
1185.600	2.976	4108.580	3364.352	-9.114E-05	9.782E-04				
1186.600	2.903	4108.620	3367.362	-1.082E-04	1.046E-03				
1187.600	2.815	4108.610	3370.200	-1.021E-04	1.054E-03				
1188.600	2.781	4108.604	3373.002	-1.082E-04	9.880E-04				
1189.600	2.791	4108.636	3375.835	-1.258E-04	1.068E-03				
1190.600	2.961	4108.663	3378.706	-1.009E-04	1.084E-03				
1191.600	2.723	4108.651	3381.589	-8.567E-05	1.055E-03				
1192.600	2.922	4108.651	3384.492	-1.009E-04	1.105E-03				
1193.600	2.873	4108.670	3387.364	-9.782E-05	9.102E-04				
1194.600	3.019	4108.685	3390.290	-9.782E-05	1.113E-03				
1195.600	2.796	4108.648	3393.193	-1.112E-04	9.691E-04				
1196.600	2.757	4108.689	3396.059	-1.051E-04	9.788E-04				
1197.600	2.932	4108.634	3398.999	-1.106E-04	1.008E-03				
1198.600	2.728	4108.679	3401.858	-9.479E-05	8.980E-04				
1199.600	2.903	4108.702	3404.771	-9.965E-05	9.090E-04				
1200.600	2.835	4108.696	3407.588	-1.233E-04	9.685E-04				
1201.600	3.010	4108.712	3410.509	-1.094E-04	1.023E-03				
1202.600	2.883	4108.722	3413.403	-1.069E-04	9.254E-04				
1203.600	2.830	4108.700	3416.269	-9.539E-05	9.363E-04				
1204.600	2.825	4108.717	3419.098	-1.136E-04	9.545E-04				
1205.600	2.917	4108.681	3422.002	-9.296E-05	9.630E-04				
1206.600	2.844	4108.743	3424.867	-1.051E-04	1.006E-03				
1207.200	2.956	4108.734	3426.612	-1.057E-04	9.709E-04				
1207.400	2499.841	4271.417	3926.580	-9.904E-05	8.810E-04				
1207.600	2501.328	4272.753	4426.846	-1.246E-04	9.339E-04				
1207.800	2501.863	4273.763	4927.219	-1.075E-04	1.040E-03				
1208.200	2502.053	4275.498	5928.024	-9.843E-05	1.032E-03				
1208.600	2502.092	4276.957	6928.892	-9.722E-05	9.691E-04				
1209.000	2502.345	4278.310	7929.823	-9.600E-05	9.655E-04				
1209.400	2502.398	4279.607	8930.771	-1.015E-04	9.946E-04				
1209.800	2502.301	4280.748	9931.699	-1.051E-04	9.940E-04				
1210.200	2502.204	4281.930	10932.634	-1.154E-04	1.114E-03				
1210.600	2502.384	4283.013	11933.598	-1.233E-04	9.934E-04				
1211.000	2502.398	4284.058	12934.568	-1.021E-04	1.068E-03				
1211.600	2502.277	4285.567	14435.959	-1.009E-04	9.017E-04				
1212.200	2502.466	4286.990	15937.442	-1.045E-04	1.082E-03				
1212.800	2502.379	4288.383	17438.898	-1.003E-04	9.551E-04				
1213.400	2502.568	4289.712	18940.432	-1.027E-04	9.479E-04				
1214.000	2502.588	4291.000	20441.921	-1.209E-04	9.363E-04				
1214.600	2502.393	4292.161	21943.439	-1.094E-04	8.968E-04				
1215.200	2502.646	4293.454	23444.962	-1.124E-04	1.001E-03				
1215.800	2502.505	4294.610	24946.489	-9.843E-05	9.193E-04				
1216.400	2502.549	4295.755	26448.029	-1.124E-04	9.709E-04				
1217.000	2502.437	4296.824	27949.528	-1.082E-04	1.007E-03				
1217.600	2502.568	4297.898	29451.078	-1.185E-04	9.910E-04				
1218.000	2502.563	4298.640	30452.087	-9.661E-05	9.752E-04				
1218.200	5.047	4136.438	30453.096	-1.118E-04	1.035E-03				
1218.600	3.437	4134.810	30454.550	-1.063E-04	8.859E-04				
1219.000	3.335	4133.746	30455.870	-9.904E-05	9.515E-04				
1219.600	3.092	4132.560	30457.750	-1.069E-04	1.105E-03				
1220.400	3.097	4131.347	30460.186	-1.136E-04	1.018E-03				
1221.200	3.107	4130.325	30462.629	-1.185E-04	9.801E-04				
1222.200	2.956	4129.242	30465.658	-8.749E-05	1.073E-03				
1223.200	3.175	4128.325	30468.685	-9.904E-05	1.095E-03				
1224.200	2.869	4127.549	30471.607	-1.021E-04	9.995E-04				
1225.200	3.034	4126.829	30474.556	-1.167E-04	1.030E-03				
1226.200	2.873	4126.198	30477.465	-1.009E-04	9.606E-04				
1227.200	3.068	4125.662	30480.448	-9.600E-05	1.137E-03				
1228.200	3.000	4125.146	30483.438	-8.992E-05	1.095E-03				
1229.200	2.985	4124.670	30486.403	-9.114E-05	9.788E-04				
1230.200	2.791	4124.223	30489.357	-1.003E-04	9.898E-04				
1231.200	2.810	4123.834	30492.315	-1.130E-04	9.503E-04				
1232.200	2.971	4123.454	30495.253	-1.075E-04	9.558E-04				
1233.200	2.932	4123.127	30498.133	-1.185E-04	9.928E-04				
1234.200	2.898	4122.817	30501.095	-9.722E-05	9.442E-04				
1235.200	2.927	4122.520	30504.061	-1.094E-04	9.934E-04				
1236.200	2.907	4122.216	30507.048	-1.009E-04	9.011E-04				
1237.200	3.024	4121.981	30509.995	-8.628E-05	9.855E-04				
1238.200	3.005	4121.756	30512.999	-1.003E-04	1.010E-03				
1239.200	3.034	4121.516	30515.968	-1.003E-04	9.400E-04				
1240.200	3.078	4121.285	30518.944	-9.661E-05	1.095E-03				
1241.200	2.956	4121.109	30521.864	-9.904E-05	1.001E-03				
1242.200	3.029	4120.928	30524.881	-9.539E-05	9.661E-04				
1243.200	3.039	4120.693	30527.853	-9.782E-05	9.715E-04				
1244.200	3.180	4120.588	30530.941	-9.661E-05	9.770E-04				
1245.200	2.985	4120.362	30533.989	-1.161E-04	1.094E-03				
1246.200	3.039	4120.274	30537.079	-1.221E-04	9.661E-04				
1247.200	2.893	4120.147	30540.089	-1.136E-04	1.087E-03				
1248.200	2.985	4119.953	30543.125	-8.689E-05	1.081E-03				
1249.200	2.976	4119.873	30546.116	-1.075E-04	9.952E-04				
1250.200	2.937	4119.774	30549.128	-9.722E-05	1.009E-03				
1251.200	2.941	4119.620	30552.101	-1.191E-04	1.040E-03				
1252.200	3.078	4119.535	30555.166	-9.479E-05	1.031E-03				
1253.200	2.878	4119.419	30558.144	-1.063E-04	9.910E-04				
1254.200	2.956	4119.338	30561.134	-1.106E-04	9.952E-04				
1255.200	2.907	4119.214	30564.066	-1.069E-04	9.898E-04				
1256.200	2.903	4119.121	30566.988	-9.418E-05	1.092E-03				
1257.200	2.898	4119.071	30569.942	-9.965E-05	1.055E-03				
1258.200	2.781	4118.950	30572.834	-1.051E-04	9.752E-04				
1259.200	2.893	4118.895	30575.790	-1.057E-04	1.056E-03				
1260.200	2.946	4118.813	30578.777	-1.015E-04	9.551E-04				
1261.200	2.849	4118.748	30581.629	-9.114E-05	9.053E-04				
1262.200	2.888	4118.708	30584.543	-1.069E-04	8.920E-04				
1263.200	2.956	4118.622	30587.496	-1.009E-04	9.521E-04				
1264.200	3.112	4118.569	30590.466	-1.179E-04	9.746E-04				
1265.200	2.985	4118.464	30593.422	-9.904E-05	1.012E-03				
1266.200	2.937	4118.428	30596.354	-9.600E-05	9.728E-04				
1267.200	2.893	4118.409	30599.339	-1.106E-04	1.102E-03				
1268.200	2.932	4118.364	30602.345	-1.264E-04	9.843E-04				
1269.200	2.941	4118.289	30605.318	-9.479E-05	9.636E-04				
1270.200	2.937	4118.206	30608.257	-9.175E-05	1.018E-03				
1271.200	2.937	4118.226	30611.216	-1.106E-04	9.746E-04				
1272.200	2.956	4118.194	30614.161	-7.716E-05	1.081E-03				
1273.200	2.961	4118.137	30617.163	-9.296E-05	9.418E-04				
1274.200	2.985	4118.088	30620.171	-9.357E-05	1.013E-03				
1275.200	3.000	4118.051	30623.129	-1.124E-04	1.077E-03				
1276.200	2.888	4118.033	30626.053	-8.932E-05	1.046E-03				
1277.200	2.830	4117.953	30628.965	-1.130E-04	9.649E-04				
1278.200	2.796	4117.940	30631.861	-9.053E-05	9.959E-04				
1279.200	2.844	4117.938	30634.762	-1.057E-04	9.497E-04				
1280.200	2.903	4117.886	30637.688	-1.021E-04	1.029E-03				
1281.200	2.951	4117.867	30640.648	-9.904E-05	9.564E-04				
1282.200	2.903	4117.820	30643.528	-1.003E-04	1.068E-03				
1283.200	3.126	4117.777	30646.551	-9.965E-05	9.776E-04				
1284.200	2.903	4117.795	30649.540	-1.112E-04	9.260E-04				
1285.200	3.000	4117.726	30652.460	-1.027E-04	1.052E-03				
1286.200	2.985	4117.692	30655.375	-1.136E-04	1.031E-03				
1287.200	2.883	4117.685	30658.308	-1.209E-04	9.940E-04				
1288.200	2.805	4117.670	30661.133	-1.130E-04	9.940E-04				
1289.200	2.898	4117.676	30664.036	-9.782E-05	9.843E-04				
1290.200	2.888	4117.675	30666.897	-1.057E-04	9.643E-04				
1291.200	2.878	4117.614	30669.807	-1.148E-04	1.029E-03				
1292.200	2.835	4117.613	30672.709	-1.161E-04	9.776E-04				
1293.200	3.024	4117.589	30675.634	-1.106E-04	9.053E-04				
1294.200	2.937	4117.574	30678.587	-1.057E-04	1.066E-03				
1295.200	2.976	4117.549	30681.547	-1.063E-04	1.046E-03				
1296.200	2.854	4117.540	30684.505	-1.063E-04	1.139E-03				
1297.200	2.990	4117.525	30687.397	-1.009E-04	9.873E-04				
1298.200	2.976	4117.525	30690.300	-1.003E-04	1.104E-03				
1299.200	2.912	4117.482	30693.310	-9.904E-05	1.105E-03				
1300.200	2.859	4117.484	30696.253	-9.782E-05	1.015E-03				
1301.200	3.034	4117.493	30699.297	-1.063E-04	1.082E-03				
1302.200	2.995	4117.487	30702.318	-9.782E-05	1.082E-03				
1303.200	3.044	4117.428	30705.317	-9.053E-05	9.503E-04				
1304.200	2.888	4117.434	30708.258	-8.810E-05	9.922E-04				
1305.200	3.010	4117.441	30711.226	-1.148E-04	1.046E-03				
1306.200	2.864	4117.397	30714.163	-9.235E-05	1.156E-03				
1307.200	3.092	4117.404	30717.096	-9.722E-05	9.150E-04				
1308.200	3.005	4117.337	30719.999	-1.203E-04	1.024E-03				
1309.200	2.927	4117.374	30722.925	-1.167E-04	1.137E-03				
1310.200	2.941	4117.317	30725.798	-9.235E-05	9.649E-04				
1311.200	3.044	4117.380	30728.827	-1.142E-04	1.062E-03				
1312.200	3.063	4117.341	30731.853	-1.209E-04	1.027E-03				
1313.200	3.048	4117.355	30734.896	-1.136E-04	9.406E-04				
1314.200	2.946	4117.342	30737.829	-1.057E-04	9.254E-04				
1315.200	2.971	4117.311	30740.858	-9.539E-05	9.156E-04				
1316.200	2.849	4117.336	30743.864	-1.039E-04	1.001E-03				
1317.200	2.990	4117.297	30746.880	-1.136E-04	9.819E-04				
1318.200	2.815	4117.297	30749.765	-1.136E-04	9.813E-04				
1319.200	2.883	4117.286	30752.682	-1.057E-04	1.069E-03				
1320.200	2.732	4117.253	30755.610	-9.600E-05	1.004E-03				
1321.200	2.922	4117.269	30758.511	-1.185E-04	9.649E-04				
1322.200	2.888	4117.274	30761.421	-1.003E-04	1.057E-03				
1323.200	3.000	4117.254	30764.410	-1.130E-04	9.363E-04				
1324.200	2.966	4117.261	30767.315	-1.082E-04	9.825E-04				
1325.200	2.912	4117.231	30770.252	-9.722E-05	1.097E-03				
1326.200	2.927	4117.227	30773.224	-1.154E-04	9.479E-04				
1327.200	2.903	4117.200	30776.148	-1.106E-04	1.047E-03				
1328.200	2.937	4117.228	30779.161	-1.130E-04	1.018E-03				
1329.200	3.063	4117.236	30782.223	-1.161E-04	9.758E-04				
1330.200	2.961	4117.191	30785.227	-8.992E-05	1.094E-03				
1331.200	3.029	4117.187	30788.202	-9.418E-05	9.442E-04				
1332.200	2.859	4117.224	30791.126	-1.075E-04	9.691E-04				
1333.200	3.034	4117.169	30794.035	-1.288E-04	1.030E-03				
1334.200	2.849	4117.170	30796.947	-1.045E-04	9.788E-04				
1335.200	2.893	4117.151	30799.831	-1.045E-04	9.709E-04				
1336.200	3.068	4117.142	30802.784	-9.965E-05	1.036E-03				
1337.200	2.990	4117.174	30805.710	-1.221E-04	8.385E-04				
1338.000	2.922	4117.138	30808.096	-9.904E-05	9.740E-04				
1338.200	-2494.206	3954.595	30309.256	-8.385E-05	9.910E-04				
1338.400	-2495.587	3953.309	29810.139	-8.142E-05	1.024E-03				
1338.600	-2496.126	3952.239	29310.913	-1.033E-04	1.043E-03				
1339.000	-2496.338	3950.462	28312.378	-8.263E-05	1.012E-03				
1339.400	-2496.506	3948.941	27313.795	-1.021E-04	1.043E-03				
1339.800	-2496.600	3947.518	26315.142	-1.027E-04	1.018E-03				
1340.200	-2496.705	3946.197	25316.471	-9.175E-05	9.764E-04				
1340.600	-2496.727	3944.963	24317.812	-1.094E-04	1.058E-03				
1341.000	-2496.851	3943.842	23319.094	-1.118E-04	1.046E-03				
1341.400	-2496.741	3942.689	22320.385	-7.473E-05	1.058E-03				
1341.800	-2496.790	3941.618	21321.680	-9.965E-05	1.082E-03				
1342.400	-2496.656	3940.094	19823.656	-8.628E-05	9.849E-04				
1342.800	-2496.914	3939.090	18824.928	-9.053E-05	1.049E-03				
1343.400	-2496.960	3937.709	17326.790	-1.051E-04	1.140E-03				
1344.000	-2496.831	3936.307	15828.682	-1.094E-04	9.606E-04				
1344.600	-2496.938	3935.068	14330.525	-8.506E-05	1.002E-03				
1345.200	-2496.933	3933.802	12832.390	-9.053E-05	1.005E-03				
1345.800	-2496.950	3932.593	11334.240	-9.843E-05	9.296E-04				
1346.400	-2496.817	3931.419	9836.123	-9.782E-05	1.052E-03				
1347.000	-2496.848	3930.290	8337.995	-1.142E-04	1.040E-03				
1347.600	-2496.802	3929.193	6839.886	-1.057E-04	1.049E-03				
1348.200	-2496.914	3928.115	5341.717	-9.235E-05	9.679E-04				
1348.800	-2496.933	3927.092	3843.566	-9.600E-05	1.061E-03				
1349.000	0.579	4089.806	3843.682	-1.027E-04	8.877E-04				
1349.400	2.144	4091.410	3844.496	-1.118E-04	9.746E-04				
1349.800	2.426	4092.474	3845.446	-8.628E-05	9.229E-04				
1350.400	2.606	4093.695	3846.988	-1.136E-04	9.831E-04				
1351.200	2.694	4094.877	3849.176	-9.782E-05	9.539E-04				
1352.200	2.718	4096.162	3851.862	-1.039E-04	1.151E-03				
1353.200	2.684	4097.167	3854.531	-1.033E-04	9.448E-04				
1354.200	2.766	4098.049	3857.202	-1.015E-04	1.004E-03				
1355.200	2.684	4098.847	3859.848	-1.069E-04	1.018E-03				
1356.200	2.791	4099.483	3862.594	-1.136E-04	1.049E-03				
1357.200	2.873	4100.111	3865.389	-9.235E-05	1.100E-03				
1358.200	2.732	4100.641	3868.171	-1.161E-04	9.065E-04				
1359.200	2.810	4101.101	3871.015	-9.843E-05	1.012E-03				
1360.200	2.776	4101.573	3873.823	-1.142E-04	9.734E-04				
1361.200	2.630	4101.943	3876.558	-1.015E-04	9.290E-04				
1362.200	2.694	4102.401	3879.293	-9.904E-05	1.047E-03				
1363.200	2.835	4102.734	3882.093	-9.600E-05	9.886E-04				
1364.200	2.698	4103.041	3884.831	-1.130E-04	9.843E-04				
1365.200	2.723	4103.348	3887.541	-1.088E-04	1.008E-03				
1366.200	2.606	4103.620	3890.262	-1.118E-04	1.009E-03				
1367.200	2.694	4103.875	3892.914	-1.233E-04	1.063E-03				
1368.200	2.820	4104.147	3895.681	-1.167E-04	9.333E-04				
1369.200	2.937	4104.411	3898.497	-1.057E-04	1.005E-03				
1370.200	2.873	4104.621	3901.340	-1.057E-04	9.873E-04				
1371.200	2.664	4104.836	3904.160	-1.142E-04	9.965E-04				
1372.200	2.771	4105.008	3906.937	-1.173E-04	1.131E-03				
1373.200	2.747	4105.195	3909.763	-9.357E-05	9.679E-04				
1374.200	2.805	4105.345	3912.593	-1.100E-04	1.008E-03				
1375.200	2.786	4105.533	3915.437	-1.124E-04	9.934E-04				
1376.200	2.703	4105.686	3918.214	-1.033E-04	9.752E-04				
1377.200	2.708	4105.826	3920.965	-1.100E-04	1.054E-03				
1378.200	2.791	4105.926	3923.709	-9.965E-05	1.078E-03				
1379.200	2.859	4106.075	3926.530	-1.161E-04	1.071E-03				
1380.200	2.781	4106.236	3929.370	-1.003E-04	1.016E-03				
1381.200	2.859	4106.320	3932.170	-9.357E-05	1.053E-03				
1382.200	2.859	4106.423	3934.952	-9.722E-05	1.040E-03				
1383.200	2.966	4106.544	3937.859	-1.106E-04	9.606E-04				
1384.200	2.985	4106.628	3940.717	-1.003E-04	1.052E-03				
1385.200	2.689	4106.719	3943.494	-1.100E-04	1.021E-03				
1386.200	2.922	4106.840	3946.335	-9.904E-05	1.099E-03				
1387.200	2.917	4106.915	3949.183	-9.722E-05	1.034E-03				
1388.200	3.024	4106.982	3952.123	-1.009E-04	9.533E-04				
1389.200	2.893	4107.049	3955.076	-1.088E-04	9.448E-04				
1390.200	2.912	4107.136	3958.005	-1.112E-04	9.661E-04				
1391.200	3.000	4107.194	3960.929	-1.215E-04	9.296E-04				
1392.200	2.796	4107.285	3963.767	-1.136E-04	9.722E-04				
1393.200	2.820	4107.339	3966.617	-1.185E-04	1.057E-03				
1394.200	2.966	4107.405	3969.492	-1.057E-04	9.661E-04				
1395.200	2.718	4107.426	3972.291	-1.094E-04	9.369E-04				
1396.200	2.786	4107.528	3975.169	-1.148E-04	9.041E-04				
1397.200	2.762	4107.595	3978.057	-9.053E-05	9.752E-04				
1398.200	2.927	4107.639	3980.982	-1.021E-04	9.284E-04				
1399.200	2.922	4107.668	3983.902	-9.479E-05	9.843E-04				
1400.200	2.864	4107.693	3986.773	-1.069E-04	1.077E-03				
1401.200	2.946	4107.775	3989.655	-9.843E-05	9.156E-04				
1402.200	2.820	4107.824	3992.489	-1.057E-04	1.059E-03				
1403.200	2.757	4107.843	3995.341	-1.051E-04	9.965E-04				
1404.200	2.888	4107.856	3998.140	-1.246E-04	9.533E-04				
1405.200	2.883	4107.916	4001.033	-1.003E-04	9.952E-04				
1406.200	3.107	4107.982	4003.911	-1.179E-04	9.989E-04				
1407.200	2.898	4108.005	4006.825	-8.749E-05	9.995E-04				
1408.200	3.024	4108.038	4009.698	-1.082E-04	9.205E-04				
1409.200	2.941	4108.078	4012.646	-1.057E-04	1.055E-03				
1410.200	2.732	4108.062	4015.494	-1.015E-04	9.770E-04				
1411.200	2.951	4108.088	4018.411	-1.033E-04	9.545E-04				
1412.200	2.898	4108.171	4021.301	-1.124E-04	9.928E-04				
1413.200	2.766	4108.199	4024.111	-1.154E-04	8.616E-04				
1414.200	2.791	4108.199	4026.976	-1.069E-04	9.977E-04				
1415.200	2.864	4108.250	4029.900	-1.270E-04	9.880E-04				
1416.200	2.980	4108.283	4032.722	-1.100E-04	9.011E-04				
1417.200	2.854	4108.235	4035.568	-9.661E-05	9.327E-04				
1418.200	2.776	4108.292	4038.378	-1.252E-04	1.002E-03				
1419.200	2.689	4108.292	4041.197	-8.932E-05	9.934E-04				
1420.200	2.820	4108.334	4044.056	-1.039E-04	1.049E-03				
1421.200	2.878	4108.374	4046.926	-1.057E-04	1.054E-03				
1422.200	2.791	4108.394	4049.760	-1.082E-04	9.181E-04				
1423.200	2.752	4108.415	4052.537	-9.053E-05	9.661E-04				
1424.200	2.786	4108.408	4055.294	-1.142E-04	1.035E-03				
1425.200	2.815	4108.457	4058.131	-1.003E-04	1.098E-03				
1426.200	3.053	4108.434	4060.980	-1.057E-04	9.685E-04				
1427.200	2.859	4108.468	4063.840	-1.057E-04	9.709E-04				
1428.200	2.728	4108.469	4066.641	-1.167E-04	1.156E-03				
1429.200	2.805	4108.490	4069.455	-9.175E-05	1.023E-03				
1430.200	2.946	4108.542	4072.320	-1.039E-04	1.032E-03				
1431.200	2.664	4108.516	4075.139	-1.009E-04	1.010E-03				
1432.200	2.752	4108.564	4077.916	-9.357E-05	1.086E-03				
1433.200	2.903	4108.578	4080.804	-1.221E-04	1.071E-03				
1434.200	2.869	4108.563	4083.738	-9.843E-05	1.136E-03				
1435.200	2.927	4108.562	4086.545	-1.124E-04	1.117E-03				
1436.200	3.019	4108.580	4089.433	-1.118E-04	1.033E-03				
1437.200	2.854	4108.618	4092.285	-9.965E-05	1.036E-03				
1438.200	2.927	4108.636	4095.227	-1.063E-04	1.026E-03				
1439.200	2.961	4108.604	4098.121	-1.069E-04	9.983E-04				
1440.200	2.878	4108.653	4101.041	-1.009E-04	1.000E-03				
1441.200	2.927	4108.667	4103.940	-1.252E-04	9.959E-04				
1442.200	2.723	4108.636	4106.802	-9.722E-05	9.545E-04				
1443.200	2.796	4108.672	4109.625	-8.992E-05	1.039E-03				
1444.200	2.781	4108.689	4112.434	-1.082E-04	9.746E-04				
1445.200	2.844	4108.687	4115.277	-1.203E-04	1.026E-03				
1446.200	2.698	4108.685	4118.125	-9.114E-05	1.085E-03				
1447.200	2.980	4108.689	4121.004	-1.185E-04	9.017E-04				
1448.200	2.679	4108.716	4123.783	-1.130E-04	1.115E-03				
1449.200	2.800	4108.747	4126.548	-9.843E-05	1.006E-03				
1450.200	2.766	4108.747	4129.409	-1.221E-04	9.703E-04				
1451.200	2.698	4108.769	4132.222	-1.136E-04	1.013E-03				
1452.200	2.922	4108.800	4135.021	-9.782E-05	1.046E-03				
1453.200	2.747	4108.727	4137.830	-1.075E-04	1.075E-03				
1454.200	2.869	4108.811	4140.652	-1.252E-04	1.049E-03				
1455.200	2.728	4108.797	4143.472	-1.039E-04	1.059E-03				
1456.200	2.883	4108.822	4146.279	-1.185E-04	1.130E-03				
1457.200	2.718	4108.826	4149.065	-1.154E-04	1.068E-03				
1458.200	2.800	4108.809	4151.795	-1.075E-04	1.019E-03				
1459.200	2.820	4108.819	4154.605	-1.361E-04	8.841E-04				
1460.200	2.907	4108.808	4157.423	-1.106E-04	9.679E-04				
1461.200	2.776	4108.832	4160.224	-1.130E-04	9.387E-04				
1462.200	2.878	4108.839	4163.071	-1.015E-04	1.003E-03				
1463.200	2.859	4108.833	4165.897	-1.215E-04	1.057E-03				
1464.200	2.907	4108.840	4168.731	-1.191E-04	9.351E-04				
1465.200	2.713	4108.855	4171.529	-1.021E-04	9.564E-04				
1466.200	2.956	4108.850	4174.479	-1.045E-04	1.015E-03				
1467.200	2.966	4108.893	4177.328	-9.357E-05	1.017E-03				
1468.200	2.679	4108.855	4180.125	-1.021E-04	1.037E-03				
1468.800	2.820	4108.894	4181.862	-1.124E-04	1.101E-03				
