time /s	I /mA	E /mV	Q /mC	An In 1	An In 2	Rs	Cs	Zab	Phase
7088.800	-27.903	3614.485	-1228165.649	-6.501E-05	1.109E-03
7089.800	-27.915	3614.498	-1228193.604	-8.142E-05	1.137E-03
7090.800	-27.903	3614.478	-1228221.680	-7.838E-05	1.206E-03
7091.800	-28.010	3614.495	-1228249.756	-7.352E-05	1.105E-03
7092.800	-27.971	3614.477	-1228277.832	-7.352E-05	1.204E-03
7093.800	-27.791	3614.486	-1228305.908	-5.711E-05	1.032E-03
7094.800	-27.912	3614.494	-1228333.862	-6.927E-05	1.072E-03
7095.800	-27.764	3614.520	-1228361.816	-7.109E-05	1.131E-03
7096.800	-27.796	3614.471	-1228389.771	-5.833E-05	1.121E-03
7097.800	-27.818	3614.446	-1228417.847	-6.987E-05	1.162E-03
7098.800	-28.000	3614.502	-1228445.923	-8.324E-05	1.132E-03
7099.800	-27.944	3614.482	-1228473.877	-7.899E-05	9.776E-04
7100.800	-27.830	3614.485	-1228501.953	-7.413E-05	1.037E-03
7101.800	-27.903	3614.492	-1228530.029	-9.661E-05	9.764E-04
7102.800	-27.871	3614.465	-1228558.105	-6.684E-05	1.039E-03
7103.800	-27.657	3614.474	-1228585.693	-9.235E-05	1.030E-03
7104.800	-27.893	3614.510	-1228613.770	-6.744E-05	1.056E-03
7105.800	-27.810	3614.516	-1228641.846	-7.048E-05	1.031E-03
7106.800	-27.961	3614.511	-1228669.922	-5.711E-05	1.031E-03
7107.800	-27.951	3614.490	-1228697.998	-8.263E-05	1.110E-03
7108.800	-28.080	3614.511	-1228725.952	-7.291E-05	1.021E-03
7109.800	-27.599	3614.519	-1228753.784	-4.557E-05	1.074E-03
7110.800	-28.031	3614.433	-1228781.616	-6.927E-05	1.056E-03
7111.800	-27.784	3614.492	-1228809.570	-6.927E-05	1.035E-03
7112.800	-27.859	3614.478	-1228837.402	-8.020E-05	1.010E-03
7113.800	-28.134	3614.505	-1228865.356	-7.352E-05	1.097E-03
7114.800	-27.937	3614.499	-1228893.311	-7.473E-05	1.089E-03
7115.800	-27.798	3614.502	-1228921.265	-7.170E-05	1.163E-03
7116.800	-27.796	3614.464	-1228949.219	-7.413E-05	1.106E-03
7117.800	-27.681	3614.511	-1228977.173	-9.357E-05	1.113E-03
7118.800	-27.859	3614.435	-1229005.005	-6.076E-05	9.527E-04
7119.800	-27.455	3614.505	-1229032.715	-7.838E-05	1.099E-03
7120.800	-27.606	3614.519	-1229060.181	-7.109E-05	1.092E-03
7121.800	-27.728	3614.517	-1229087.646	-6.987E-05	9.825E-04
7122.800	-27.691	3614.506	-1229115.234	-7.352E-05	1.033E-03
7123.800	-27.694	3614.495	-1229143.066	-8.203E-05	9.928E-04
7124.800	-27.672	3614.510	-1229170.776	-9.235E-05	1.141E-03
7125.800	-27.407	3614.494	-1229198.242	-7.413E-05	1.085E-03
7126.800	-27.436	3614.500	-1229225.708	-8.081E-05	1.125E-03
7127.800	-27.579	3614.483	-1229253.174	-8.810E-05	1.058E-03
7128.800	-27.822	3614.487	-1229281.128	-9.296E-05	1.010E-03
7129.800	-27.754	3614.451	-1229309.082	-7.656E-05	1.080E-03
7130.800	-27.886	3614.489	-1229336.914	-7.291E-05	1.033E-03
7131.800	-27.545	3614.472	-1229364.624	-7.777E-05	1.140E-03
7132.800	-27.562	3614.503	-1229392.090	-6.623E-05	9.387E-04
7133.800	-27.344	3614.526	-1229419.556	-8.081E-05	9.910E-04
7134.800	-27.660	3614.491	-1229447.021	-7.109E-05	1.109E-03
7135.800	-27.436	3614.474	-1229474.487	-7.777E-05	1.068E-03
7136.800	-27.689	3614.489	-1229501.953	-7.473E-05	1.069E-03
7137.800	-27.604	3614.492	-1229529.419	-6.987E-05	1.043E-03
7138.800	-27.356	3614.489	-1229556.885	-5.954E-05	1.096E-03
7139.800	-27.582	3614.505	-1229584.351	-9.965E-05	1.065E-03
7140.800	-27.604	3614.491	-1229611.816	-6.744E-05	1.029E-03
7141.800	-27.574	3614.510	-1229639.282	-6.197E-05	1.066E-03
7142.800	-27.502	3614.496	-1229666.748	-6.927E-05	1.103E-03
7143.800	-27.655	3614.503	-1229694.214	-7.656E-05	1.167E-03
7144.800	-27.633	3614.503	-1229721.680	-7.656E-05	1.198E-03
7145.800	-27.516	3614.506	-1229749.268	-6.562E-05	1.125E-03
7146.800	-27.453	3614.524	-1229776.733	-7.048E-05	1.139E-03
7147.800	-27.691	3614.480	-1229804.321	-7.656E-05	1.039E-03
7148.800	-27.511	3614.475	-1229832.031	-5.651E-05	1.049E-03
7149.800	-27.353	3614.532	-1229859.497	-7.716E-05	1.075E-03
7150.800	-27.210	3614.465	-1229886.963	-6.805E-05	1.052E-03
7151.800	-27.504	3614.480	-1229914.429	-6.805E-05	1.007E-03
7152.800	-27.628	3614.513	-1229941.895	-7.230E-05	9.989E-04
7153.800	-27.385	3614.477	-1229969.238	-5.286E-05	9.928E-04
7154.800	-27.545	3614.483	-1229996.704	-8.689E-05	1.139E-03
7155.800	-27.446	3614.451	-1230024.170	-6.744E-05	1.013E-03
7156.800	-27.297	3614.496	-1230051.636	-8.263E-05	1.121E-03
7157.800	-27.210	3614.491	-1230079.102	-7.413E-05	1.054E-03
7158.800	-27.358	3614.509	-1230106.567	-5.833E-05	1.007E-03
7159.800	-27.361	3614.460	-1230133.789	-6.744E-05	1.056E-03
7160.800	-27.358	3614.479	-1230161.133	-7.413E-05	1.015E-03
7161.800	-27.205	3614.499	-1230188.477	-7.473E-05	1.065E-03
7162.800	-27.280	3614.492	-1230215.942	-8.203E-05	1.123E-03
7163.800	-27.326	3614.495	-1230243.286	-6.744E-05	9.479E-04
7164.800	-27.139	3614.439	-1230270.630	-7.777E-05	9.618E-04
7165.800	-27.100	3614.487	-1230297.974	-8.446E-05	1.053E-03
7166.800	-27.186	3614.496	-1230325.317	-6.197E-05	1.095E-03
7167.800	-27.407	3614.493	-1230352.417	-5.894E-05	1.135E-03
7168.800	-27.275	3614.505	-1230379.883	-5.043E-05	1.109E-03
7169.800	-27.380	3614.465	-1230407.349	-5.833E-05	1.093E-03
7170.800	-27.275	3614.492	-1230434.692	-6.197E-05	1.052E-03
7171.800	-27.251	3614.454	-1230462.158	-7.230E-05	1.125E-03
7172.800	-27.480	3614.471	-1230489.624	-6.623E-05	1.116E-03
7173.800	-27.183	3614.497	-1230516.968	-7.291E-05	1.191E-03
7174.800	-27.258	3614.499	-1230544.434	-5.833E-05	1.114E-03
7175.800	-27.122	3614.512	-1230571.533	-6.987E-05	1.104E-03
7176.800	-27.098	3614.505	-1230598.755	-8.506E-05	1.037E-03
7177.800	-27.305	3614.482	-1230626.099	-6.684E-05	9.752E-04
7178.800	-27.098	3614.506	-1230653.442	-7.109E-05	9.041E-04
7179.800	-27.020	3614.523	-1230680.664	-7.716E-05	1.122E-03
7180.800	-27.018	3614.480	-1230707.520	-7.109E-05	1.020E-03
7181.800	-27.074	3614.489	-1230734.375	-7.352E-05	1.082E-03
7182.800	-27.079	3614.471	-1230761.353	-6.927E-05	9.400E-04
7183.800	-27.015	3614.484	-1230788.452	-6.197E-05	1.107E-03
7184.800	-27.018	3614.491	-1230815.674	-6.258E-05	1.038E-03
7185.800	-27.003	3614.466	-1230842.651	-7.230E-05	1.027E-03
7186.800	-27.139	3614.470	-1230869.751	-8.203E-05	1.069E-03
7187.800	-26.891	3614.483	-1230896.851	-6.562E-05	1.083E-03
7188.800	-27.132	3614.486	-1230923.706	-7.534E-05	9.314E-04
7189.800	-27.074	3614.448	-1230950.684	-5.529E-05	1.077E-03
7190.800	-26.964	3614.492	-1230977.661	-8.810E-05	1.042E-03
7191.800	-27.088	3614.432	-1231004.761	-5.590E-05	9.223E-04
7192.800	-27.125	3614.457	-1231031.738	-6.744E-05	1.125E-03
7193.800	-27.054	3614.492	-1231058.716	-7.109E-05	1.136E-03
7194.800	-26.928	3614.486	-1231085.693	-6.927E-05	9.807E-04
7195.800	-26.989	3614.484	-1231112.793	-6.805E-05	9.898E-04
7196.800	-26.974	3614.468	-1231139.648	-6.744E-05	1.129E-03
7197.800	-27.151	3614.505	-1231166.504	-8.263E-05	9.946E-04
7198.800	-26.981	3614.470	-1231193.848	-5.894E-05	1.136E-03
7199.800	-26.928	3614.484	-1231220.825	-7.352E-05	1.037E-03
7200.800	-27.127	3614.484	-1231247.803	-8.020E-05	1.128E-03
7201.800	-26.918	3614.491	-1231274.780	-7.230E-05	1.189E-03
7202.800	-27.086	3614.511	-1231301.758	-7.413E-05	1.073E-03
7203.800	-27.142	3614.480	-1231328.613	-6.380E-05	1.076E-03
7204.800	-27.047	3614.488	-1231355.591	-5.104E-05	1.162E-03
7205.800	-26.972	3614.455	-1231382.446	-6.927E-05	1.100E-03
7206.800	-27.023	3614.465	-1231409.302	-6.137E-05	1.012E-03
7207.800	-27.244	3614.488	-1231436.279	-7.656E-05	1.029E-03
7208.800	-26.945	3614.519	-1231463.257	-5.043E-05	1.012E-03
7209.800	-27.001	3614.513	-1231490.112	-5.833E-05	9.460E-04
7210.800	-26.940	3614.520	-1231516.968	-6.987E-05	1.072E-03
7211.800	-27.006	3614.493	-1231543.823	-7.048E-05	1.078E-03
7212.800	-27.047	3614.499	-1231570.679	-6.684E-05	1.119E-03
7213.800	-27.027	3614.500	-1231597.656	-6.380E-05	1.020E-03
7214.800	-27.117	3614.492	-1231624.512	-8.385E-05	1.013E-03
7215.800	-27.013	3614.460	-1231651.367	-6.744E-05	1.101E-03
7216.800	-27.159	3614.488	-1231678.345	-6.684E-05	1.026E-03
7217.800	-26.986	3614.506	-1231705.444	-7.960E-05	1.083E-03
7218.800	-27.273	3614.460	-1231732.666	-5.347E-05	1.130E-03
7219.800	-27.149	3614.482	-1231759.644	-7.230E-05	1.013E-03
7220.800	-26.933	3614.492	-1231786.621	-6.927E-05	1.136E-03
7221.800	-26.955	3614.504	-1231813.477	-7.838E-05	1.042E-03
7222.800	-26.913	3614.483	-1231840.332	-5.894E-05	1.110E-03
7223.800	-26.828	3614.513	-1231867.188	-5.590E-05	1.211E-03
7224.800	-27.027	3614.464	-1231894.043	-7.838E-05	1.089E-03
7225.800	-26.641	3614.458	-1231920.898	-7.170E-05	1.049E-03
7226.800	-26.976	3614.472	-1231947.754	-5.225E-05	1.111E-03
7227.800	-26.886	3614.497	-1231974.609	-7.899E-05	1.218E-03
7228.800	-26.626	3614.470	-1232001.465	-6.623E-05	1.052E-03
7229.800	-26.884	3614.474	-1232028.320	-8.446E-05	1.108E-03
7230.800	-26.777	3614.511	-1232055.176	-6.258E-05	1.048E-03
7231.800	-26.986	3614.500	-1232082.031	-6.684E-05	1.034E-03
7232.800	-26.765	3614.486	-1232108.887	-6.623E-05	1.098E-03
7233.800	-26.622	3614.508	-1232135.742	-7.170E-05	1.058E-03
7234.800	-26.724	3614.499	-1232162.598	-7.170E-05	1.034E-03
7235.800	-26.634	3614.527	-1232189.453	-9.175E-05	1.093E-03
7236.800	-26.809	3614.495	-1232216.187	-8.203E-05	9.406E-04
7237.800	-26.741	3614.486	-1232243.042	-7.716E-05	9.952E-04
7238.800	-26.906	3614.507	-1232269.775	-7.595E-05	1.037E-03
7239.800	-26.641	3614.500	-1232296.509	-6.137E-05	9.126E-04
7240.800	-26.835	3614.506	-1232323.242	-6.441E-05	1.119E-03
7241.800	-26.721	3614.487	-1232349.731	-7.291E-05	1.137E-03
7242.800	-26.828	3614.506	-1232376.587	-7.170E-05	9.880E-04
7243.800	-26.673	3614.478	-1232403.442	-6.501E-05	1.070E-03
7244.800	-26.833	3614.505	-1232430.298	-5.894E-05	1.134E-03
7245.800	-26.918	3614.468	-1232457.153	-7.960E-05	1.068E-03
7246.800	-26.580	3614.495	-1232484.009	-7.230E-05	1.013E-03
7247.800	-26.617	3614.508	-1232510.742	-6.684E-05	1.027E-03
7248.800	-26.527	3614.519	-1232537.354	-7.413E-05	1.108E-03
7249.800	-26.731	3614.433	-1232564.087	-7.716E-05	1.059E-03
7250.800	-26.522	3614.503	-1232590.820	-5.408E-05	1.037E-03
7251.800	-26.378	3614.496	-1232617.432	-6.623E-05	1.143E-03
7252.800	-26.580	3614.474	-1232644.165	-7.716E-05	1.111E-03
7253.800	-26.602	3614.499	-1232671.021	-6.866E-05	1.054E-03
7254.800	-26.748	3614.486	-1232697.876	-8.385E-05	1.113E-03
7255.800	-26.614	3614.454	-1232724.731	-8.081E-05	1.080E-03
7256.800	-26.515	3614.524	-1232751.465	-7.656E-05	9.308E-04
7257.800	-26.845	3614.465	-1232778.320	-7.230E-05	1.112E-03
7258.800	-26.974	3614.479	-1232805.176	-6.380E-05	1.110E-03
7259.800	-26.658	3614.493	-1232832.031	-7.473E-05	1.026E-03
7260.800	-26.305	3614.506	-1232858.765	-7.413E-05	1.018E-03
7261.800	-26.772	3614.429	-1232885.132	-6.380E-05	9.600E-04
7262.800	-26.476	3614.487	-1232911.499	-6.562E-05	9.649E-04
7263.800	-26.578	3614.475	-1232937.988	-5.408E-05	1.007E-03
7264.800	-26.677	3614.514	-1232964.844	-6.137E-05	1.092E-03
7265.800	-26.575	3614.488	-1232991.577	-6.805E-05	1.061E-03
7266.800	-26.410	3614.503	-1233017.944	-7.048E-05	1.030E-03
7267.800	-26.641	3614.463	-1233044.678	-9.053E-05	1.075E-03
7268.800	-26.485	3614.497	-1233071.411	-6.684E-05	1.042E-03
7269.800	-26.668	3614.511	-1233097.900	-7.352E-05	1.139E-03
7270.800	-26.522	3614.496	-1233124.146	-7.048E-05	1.013E-03
7271.800	-26.337	3614.486	-1233150.513	-7.716E-05	1.063E-03
7272.800	-26.464	3614.497	-1233176.880	-6.137E-05	1.125E-03
7273.800	-26.551	3614.458	-1233203.247	-6.015E-05	1.099E-03
7274.800	-26.456	3614.480	-1233229.614	-7.352E-05	1.091E-03
7275.200	-26.340	3614.508	-1233240.234	-6.501E-05	1.019E-03
7275.400	3.136	3616.495	-1233239.624	-7.960E-05	1.033E-03
7275.800	2.757	3616.476	-1233238.403	-6.441E-05	1.048E-03
7276.600	2.776	3616.535	-1233236.206	-6.866E-05	1.109E-03
7277.600	2.601	3616.524	-1233233.643	-6.744E-05	1.124E-03
7278.600	2.766	3616.579	-1233230.957	-7.473E-05	1.068E-03
7279.600	2.650	3616.606	-1233228.394	-8.628E-05	1.035E-03
7280.600	2.679	3616.623	-1233225.708	-8.081E-05	1.031E-03
7281.600	2.844	3616.634	-1233222.778	-6.623E-05	1.044E-03
7282.600	2.640	3616.683	-1233219.849	-6.866E-05	1.148E-03
7283.600	2.864	3616.694	-1233217.285	-7.777E-05	1.100E-03
7284.600	2.805	3616.709	-1233214.355	-7.291E-05	1.036E-03
7285.600	2.684	3616.694	-1233211.670	-7.352E-05	1.103E-03
7286.600	2.752	3616.740	-1233209.106	-6.501E-05	1.151E-03
7287.600	2.766	3616.742	-1233206.299	-7.595E-05	1.024E-03
7288.600	2.752	3616.757	-1233203.735	-8.992E-05	1.134E-03
7289.600	2.737	3616.771	-1233201.294	-1.009E-04	1.001E-03
7290.600	2.674	3616.816	-1233198.608	-8.020E-05	1.087E-03
7291.600	2.762	3616.825	-1233195.801	-7.413E-05	1.028E-03
7292.600	2.742	3616.824	-1233193.359	-8.020E-05	1.015E-03
7293.600	2.864	3616.828	-1233190.308	-7.352E-05	1.105E-03
7294.600	2.878	3616.828	-1233187.378	-7.352E-05	1.100E-03
7295.600	2.835	3616.860	-1233184.570	-7.291E-05	9.314E-04
7296.600	2.742	3616.880	-1233181.763	-7.230E-05	1.100E-03
7297.600	2.810	3616.891	-1233179.077	-5.954E-05	1.067E-03
7298.600	2.698	3616.914	-1233176.270	-8.385E-05	9.722E-04
7299.600	2.878	3616.902	-1233173.340	-6.744E-05	1.121E-03
7300.600	2.878	3616.930	-1233170.288	-6.927E-05	1.014E-03
7301.600	2.694	3616.912	-1233167.358	-7.230E-05	1.005E-03
7302.600	2.694	3616.941	-1233164.673	-6.137E-05	1.140E-03
7303.600	2.805	3616.934	-1233161.987	-6.623E-05	9.898E-04
7304.600	2.645	3616.954	-1233159.302	-6.319E-05	1.159E-03
7305.600	2.771	3616.962	-1233156.372	-7.473E-05	1.157E-03
7306.600	2.776	3616.972	-1233153.564	-6.987E-05	1.143E-03
7307.600	2.698	3616.991	-1233150.757	-6.684E-05	1.243E-03
7308.600	2.728	3616.973	-1233148.071	-6.380E-05	1.119E-03
7309.600	2.694	3617.006	-1233145.264	-8.020E-05	1.052E-03
7310.600	2.528	3617.008	-1233142.822	-6.866E-05	1.148E-03
7311.600	2.669	3616.998	-1233140.259	-7.473E-05	1.018E-03
7312.600	2.728	3617.022	-1233137.817	-8.203E-05	1.176E-03
7313.600	2.640	3616.996	-1233135.254	-7.777E-05	1.123E-03
7314.600	2.728	3617.036	-1233132.690	-6.744E-05	1.101E-03
7315.600	2.961	3617.018	-1233129.883	-8.932E-05	1.094E-03
7316.600	2.718	3617.038	-1233127.197	-8.081E-05	1.112E-03
7317.600	2.698	3617.070	-1233124.634	-8.932E-05	9.892E-04
7318.600	2.689	3617.049	-1233121.826	-6.805E-05	1.055E-03
7319.600	2.645	3617.033	-1233119.263	-8.810E-05	1.164E-03
7320.600	2.781	3617.094	-1233116.333	-7.291E-05	9.722E-04
7321.600	2.708	3617.083	-1233113.770	-8.020E-05	9.466E-04
7322.600	2.713	3617.094	-1233110.962	-9.175E-05	1.091E-03
7323.600	2.810	3617.092	-1233107.910	-8.628E-05	9.515E-04
7324.600	2.800	3617.092	-1233104.980	-8.203E-05	1.092E-03
7325.600	2.737	3617.111	-1233102.173	-8.932E-05	1.076E-03
7326.600	2.752	3617.125	-1233099.487	-7.716E-05	1.080E-03
7327.600	2.616	3617.078	-1233097.046	-6.927E-05	1.012E-03
7328.600	2.645	3617.130	-1233094.604	-8.020E-05	1.051E-03
7329.600	2.616	3617.128	-1233091.919	-7.899E-05	1.125E-03
7330.600	2.708	3617.134	-1233089.478	-6.744E-05	1.165E-03
7331.600	2.664	3617.152	-1233087.036	-7.656E-05	1.027E-03
7332.600	2.703	3617.156	-1233084.351	-7.109E-05	1.125E-03
7333.600	2.650	3617.142	-1233081.787	-9.235E-05	1.114E-03
7334.600	2.582	3617.196	-1233079.346	-7.291E-05	1.063E-03
7335.600	2.825	3617.141	-1233076.782	-7.656E-05	1.065E-03
7336.600	2.650	3617.151	-1233074.097	-7.656E-05	1.113E-03
7337.600	2.776	3617.164	-1233071.533	-6.866E-05	1.117E-03
7338.600	2.742	3617.150	-1233068.970	-6.987E-05	1.084E-03
7339.600	2.703	3617.192	-1233066.406	-7.170E-05	1.061E-03
7340.600	2.757	3617.201	-1233063.721	-7.473E-05	1.148E-03
7341.600	2.635	3617.227	-1233061.279	-7.595E-05	1.068E-03
7342.600	2.713	3617.182	-1233058.838	-7.960E-05	9.959E-04
7343.600	2.582	3617.219	-1233056.152	-8.203E-05	1.085E-03
7344.600	2.577	3617.251	-1233053.467	-9.235E-05	1.101E-03
7345.600	2.480	3617.222	-1233050.903	-8.385E-05	1.195E-03
7346.600	2.679	3617.198	-1233048.340	-8.385E-05	1.075E-03
7347.600	2.849	3617.240	-1233045.654	-6.380E-05	1.055E-03
7348.600	2.844	3617.238	-1233042.847	-6.744E-05	1.111E-03
7349.600	2.844	3617.245	-1233040.283	-6.866E-05	1.156E-03
7350.600	2.893	3617.248	-1233037.354	-7.899E-05	8.847E-04
7351.600	2.737	3617.255	-1233034.790	-6.927E-05	1.008E-03
7352.600	2.747	3617.244	-1233032.227	-7.960E-05	1.133E-03
7353.600	2.713	3617.292	-1233029.663	-8.020E-05	9.904E-04
7354.600	2.752	3617.265	-1233026.611	-9.175E-05	1.126E-03
7355.600	2.791	3617.265	-1233023.804	-8.142E-05	1.124E-03
7356.600	2.796	3617.306	-1233020.874	-7.413E-05	1.107E-03
7357.600	2.630	3617.313	-1233018.066	-8.628E-05	1.101E-03
7358.600	2.650	3617.315	-1233015.625	-8.749E-05	1.132E-03
7359.600	2.781	3617.337	-1233012.695	-7.473E-05	1.055E-03
7360.600	2.723	3617.340	-1233010.132	-7.170E-05	1.098E-03
7361.600	2.664	3617.319	-1233007.568	-7.048E-05	9.916E-04
7362.600	2.903	3617.325	-1233005.005	-1.009E-04	1.084E-03
7363.600	2.679	3617.319	-1233002.441	-7.838E-05	9.691E-04
7364.600	2.674	3617.315	-1233000.000	-7.838E-05	1.139E-03
7365.600	2.480	3617.332	-1232997.559	-6.319E-05	1.151E-03
7366.600	2.635	3617.326	-1232995.117	-8.324E-05	1.132E-03
7367.600	2.766	3617.338	-1232992.554	-7.048E-05	9.047E-04
7368.600	2.674	3617.321	-1232990.112	-6.805E-05	1.164E-03
7369.600	2.669	3617.371	-1232987.549	-8.020E-05	1.126E-03
7370.600	2.708	3617.369	-1232985.107	-5.711E-05	1.051E-03
7371.600	2.781	3617.361	-1232982.544	-7.473E-05	1.094E-03
7372.600	2.752	3617.389	-1232979.736	-7.777E-05	1.065E-03
7373.600	2.635	3617.365	-1232976.929	-8.567E-05	1.036E-03
7374.600	2.669	3617.376	-1232974.243	-6.562E-05	1.140E-03
7375.600	2.625	3617.389	-1232971.802	-7.960E-05	1.049E-03
7376.600	2.669	3617.401	-1232969.238	-9.479E-05	1.075E-03
7377.600	2.664	3617.393	-1232966.797	-7.109E-05	1.074E-03
7378.600	2.825	3617.394	-1232963.989	-7.413E-05	1.125E-03
7379.600	2.669	3617.414	-1232961.548	-8.203E-05	1.055E-03
7380.600	2.562	3617.399	-1232959.106	-8.020E-05	1.052E-03
7381.600	2.650	3617.412	-1232956.543	-7.291E-05	1.067E-03
7382.600	2.635	3617.373	-1232954.102	-8.203E-05	1.126E-03
7383.600	2.509	3617.384	-1232951.538	-8.506E-05	1.044E-03
7384.600	2.596	3617.421	-1232949.097	-6.684E-05	1.125E-03
7385.600	2.577	3617.432	-1232946.655	-6.015E-05	1.046E-03
7386.600	2.494	3617.394	-1232944.214	-6.076E-05	1.024E-03
7387.600	2.645	3617.420	-1232941.650	-5.711E-05	1.027E-03
7388.600	2.562	3617.440	-1232939.209	-8.567E-05	1.133E-03
7389.600	2.567	3617.394	-1232936.768	-7.716E-05	1.060E-03
7390.600	2.528	3617.451	-1232934.326	-6.623E-05	1.058E-03
7391.600	2.572	3617.450	-1232931.885	-9.296E-05	1.119E-03
7392.600	2.582	3617.413	-1232929.443	-6.623E-05	1.091E-03
7393.600	2.518	3617.456	-1232927.002	-7.960E-05	1.061E-03
7394.600	2.446	3617.443	-1232924.561	-7.899E-05	1.032E-03
7395.200	2.499	3617.425	-1232923.096	-6.380E-05	1.069E-03
7395.400	252.203	3633.992	-1232872.681	-8.142E-05	1.075E-03
7395.800	252.422	3634.239	-1232771.606	-8.567E-05	9.175E-04
7396.600	252.422	3634.570	-1232569.702	-7.777E-05	1.071E-03
7397.600	252.607	3634.832	-1232317.017	-8.871E-05	9.855E-04
7398.600	252.436	3635.134	-1232064.331	-6.987E-05	1.020E-03
7399.600	252.616	3635.406	-1231811.646	-6.684E-05	1.132E-03
7400.600	252.412	3635.614	-1231558.960	-6.866E-05	1.032E-03
7401.600	252.446	3635.753	-1231306.396	-6.987E-05	1.092E-03
7402.600	252.650	3635.970	-1231053.711	-6.623E-05	1.042E-03
7403.600	252.641	3636.181	-1230801.025	-7.048E-05	1.053E-03
7404.600	252.441	3636.311	-1230548.340	-7.170E-05	1.046E-03
7405.600	252.485	3636.506	-1230295.654	-6.987E-05	1.164E-03
7406.600	252.611	3636.678	-1230042.969	-7.656E-05	1.135E-03
7407.600	252.558	3636.775	-1229790.283	-6.684E-05	1.113E-03
7408.600	252.680	3636.944	-1229537.598	-9.114E-05	1.041E-03
7409.600	252.607	3637.079	-1229284.912	-6.076E-05	1.097E-03
7410.600	252.611	3637.200	-1229032.227	-6.987E-05	1.255E-03
7411.600	252.500	3637.313	-1228779.541	-6.562E-05	1.075E-03
7412.600	252.791	3637.400	-1228526.855	-7.656E-05	1.089E-03
7413.600	252.650	3637.536	-1228274.170	-7.777E-05	1.165E-03
7414.600	252.577	3637.703	-1228021.484	-8.020E-05	1.205E-03
7415.600	252.602	3637.785	-1227768.799	-8.203E-05	1.095E-03
7416.600	252.529	3637.855	-1227516.113	-5.894E-05	1.148E-03
7417.600	252.509	3637.961	-1227263.428	-8.385E-05	1.164E-03
7418.600	252.441	3638.097	-1227010.742	-8.142E-05	1.037E-03
7419.600	252.519	3638.183	-1226758.057	-6.987E-05	1.071E-03
7420.600	252.539	3638.239	-1226505.493	-7.109E-05	1.105E-03
7421.600	252.475	3638.369	-1226252.808	-8.203E-05	1.130E-03
7422.600	252.475	3638.456	-1226000.122	-7.048E-05	1.145E-03
7423.600	252.733	3638.540	-1225747.437	-7.960E-05	1.020E-03
7424.600	252.641	3638.608	-1225494.751	-6.744E-05	1.029E-03
7425.600	252.573	3638.733	-1225242.065	-8.446E-05	1.141E-03
7426.600	252.704	3638.813	-1224989.380	-5.529E-05	1.072E-03
7427.600	252.646	3638.894	-1224736.694	-6.501E-05	9.260E-04
7428.600	252.684	3638.988	-1224484.009	-8.263E-05	9.205E-04
7429.600	252.752	3639.058	-1224231.323	-7.473E-05	1.060E-03
7430.600	252.548	3639.094	-1223978.638	-6.258E-05	9.588E-04
7431.600	252.694	3639.195	-1223725.952	-8.749E-05	1.023E-03
7432.600	252.772	3639.282	-1223473.267	-8.203E-05	1.132E-03
7433.600	252.582	3639.343	-1223220.581	-8.385E-05	1.116E-03
7434.600	252.577	3639.409	-1222967.896	-7.777E-05	1.065E-03
7435.600	252.641	3639.463	-1222715.210	-7.230E-05	9.983E-04
7436.600	252.500	3639.556	-1222462.524	-6.805E-05	1.128E-03
7437.600	252.772	3639.647	-1222209.839	-7.960E-05	1.153E-03
7438.600	252.787	3639.706	-1221957.031	-6.441E-05	9.606E-04
7439.600	252.738	3639.780	-1221704.346	-6.137E-05	1.165E-03
7440.600	252.718	3639.840	-1221451.660	-6.441E-05	1.098E-03
7441.600	252.728	3639.896	-1221198.975	-6.562E-05	1.156E-03
7442.600	252.743	3639.957	-1220946.289	-7.473E-05	9.740E-04
7443.600	252.782	3640.049	-1220693.604	-7.838E-05	1.072E-03
7444.600	252.611	3640.073	-1220440.918	-8.324E-05	1.069E-03
7445.600	252.670	3640.148	-1220188.232	-6.076E-05	1.045E-03
7446.600	252.573	3640.185	-1219935.547	-8.020E-05	1.071E-03
7447.600	252.534	3640.208	-1219682.861	-8.932E-05	1.131E-03
7448.600	252.660	3640.272	-1219430.176	-8.932E-05	1.024E-03
7449.600	252.665	3640.358	-1219177.490	-9.053E-05	9.776E-04
7450.600	252.602	3640.374	-1218924.805	-6.015E-05	1.072E-03
7451.600	252.689	3640.504	-1218672.119	-6.076E-05	1.116E-03
7452.600	252.723	3640.565	-1218419.434	-7.230E-05	1.076E-03
7453.600	252.670	3640.589	-1218166.748	-7.838E-05	1.130E-03
7454.600	252.796	3640.706	-1217914.063	-7.291E-05	9.788E-04
7455.600	252.743	3640.682	-1217661.377	-7.716E-05	1.008E-03
7456.600	252.631	3640.774	-1217408.691	-6.927E-05	1.116E-03
7457.600	252.762	3640.834	-1217156.006	-7.170E-05	9.715E-04
7458.600	252.752	3640.896	-1216903.320	-8.203E-05	1.066E-03
7459.600	252.723	3640.921	-1216650.635	-6.197E-05	1.111E-03
7460.600	252.821	3640.978	-1216397.949	-8.081E-05	1.082E-03
7461.600	252.791	3641.044	-1216145.264	-6.380E-05	1.062E-03
7462.600	252.772	3641.097	-1215892.578	-7.048E-05	1.047E-03
7463.600	252.655	3641.167	-1215639.893	-8.871E-05	1.160E-03
7464.600	252.704	3641.193	-1215387.207	-7.534E-05	1.102E-03
7465.600	252.748	3641.255	-1215134.521	-6.805E-05	1.017E-03
7466.600	252.787	3641.309	-1214881.836	-7.777E-05	1.104E-03
7467.600	252.529	3641.342	-1214629.150	-5.165E-05	1.138E-03
7468.600	252.796	3641.428	-1214376.465	-7.473E-05	1.127E-03
7469.600	252.757	3641.423	-1214123.779	-8.142E-05	1.122E-03
7470.600	252.514	3641.500	-1213871.094	-7.230E-05	1.130E-03
7471.600	252.772	3641.535	-1213618.408	-7.595E-05	9.861E-04
7472.600	252.641	3641.607	-1213365.723	-6.562E-05	1.226E-03
7473.600	252.451	3641.664	-1213113.037	-6.076E-05	1.099E-03
7474.600	252.680	3641.714	-1212860.352	-7.473E-05	1.051E-03
7475.600	252.398	3641.747	-1212607.666	-5.104E-05	1.055E-03
7476.600	252.582	3641.813	-1212354.980	-7.777E-05	1.151E-03
7477.600	252.670	3641.832	-1212102.295	-8.263E-05	1.168E-03
7478.600	252.743	3641.904	-1211849.609	-7.048E-05	1.031E-03
7479.600	252.563	3641.920	-1211596.924	-7.777E-05	1.148E-03
7480.600	252.699	3641.990	-1211344.238	-7.960E-05	1.122E-03
7481.600	252.689	3642.041	-1211091.553	-6.744E-05	9.691E-04
7482.600	252.660	3642.047	-1210838.867	-7.656E-05	9.746E-04
7483.600	252.660	3642.093	-1210586.182	-7.656E-05	1.077E-03
7484.600	252.558	3642.167	-1210333.618	-7.716E-05	1.043E-03
7485.600	252.553	3642.216	-1210080.933	-7.048E-05	1.080E-03
7486.600	252.607	3642.234	-1209828.247	-7.352E-05	1.077E-03
7487.600	252.723	3642.285	-1209575.562	-6.441E-05	1.181E-03
7488.600	252.728	3642.347	-1209322.876	-8.081E-05	8.822E-04
7489.600	252.699	3642.376	-1209070.190	-6.197E-05	9.564E-04
7490.600	252.733	3642.446	-1208817.505	-7.473E-05	1.009E-03
7491.600	252.597	3642.485	-1208564.819	-7.109E-05	1.039E-03
7492.600	252.539	3642.522	-1208312.134	-6.137E-05	1.191E-03
7493.600	252.616	3642.585	-1208059.448	-6.805E-05	1.119E-03
7494.600	252.621	3642.586	-1207806.763	-6.623E-05	1.101E-03
7495.600	252.543	3642.664	-1207554.077	-7.838E-05	1.171E-03
7496.600	252.621	3642.682	-1207301.392	-6.927E-05	1.131E-03
7497.600	252.529	3642.686	-1207048.706	-7.656E-05	1.043E-03
7498.600	252.563	3642.770	-1206796.021	-8.992E-05	1.200E-03
7499.600	252.631	3642.812	-1206543.335	-8.263E-05	1.055E-03
7500.600	252.539	3642.848	-1206290.649	-8.385E-05	9.995E-04
7501.600	252.704	3642.885	-1206037.964	-7.838E-05	9.649E-04
7502.600	252.597	3642.936	-1205785.278	-7.777E-05	1.123E-03
7503.200	252.660	3642.959	-1205633.667	-6.744E-05	1.017E-03
7503.400	2.844	3626.463	-1205633.057	-7.291E-05	1.113E-03
7503.800	2.766	3626.259	-1205631.836	-9.479E-05	1.074E-03
7504.600	2.694	3625.953	-1205629.761	-6.441E-05	9.807E-04
7505.600	2.591	3625.666	-1205627.197	-7.656E-05	1.002E-03
7506.600	2.718	3625.447	-1205624.756	-6.076E-05	1.006E-03
7507.600	2.650	3625.234	-1205622.314	-8.992E-05	1.167E-03
7508.600	2.684	3625.115	-1205619.873	-7.109E-05	1.083E-03
7509.600	2.572	3624.961	-1205617.432	-8.567E-05	9.940E-04
7510.600	2.825	3624.809	-1205614.868	-7.595E-05	9.825E-04
7511.600	2.684	3624.647	-1205612.305	-8.324E-05	9.837E-04
7512.600	2.771	3624.574	-1205609.619	-7.291E-05	1.111E-03
7513.600	2.728	3624.441	-1205606.812	-6.562E-05	1.066E-03
7514.600	2.776	3624.327	-1205603.882	-6.987E-05	1.012E-03
7515.600	2.650	3624.267	-1205601.196	-5.833E-05	1.069E-03
7516.600	2.762	3624.187	-1205598.633	-6.258E-05	1.126E-03
7517.600	2.805	3624.058	-1205596.069	-6.684E-05	9.801E-04
7518.600	2.650	3624.017	-1205593.506	-8.506E-05	1.167E-03
7519.600	2.757	3623.953	-1205590.820	-8.203E-05	1.106E-03
7520.600	2.650	3623.852	-1205588.257	-8.506E-05	1.028E-03
7521.600	2.786	3623.760	-1205585.449	-5.651E-05	1.132E-03
7522.600	2.907	3623.674	-1205582.764	-7.716E-05	1.060E-03
7523.600	2.771	3623.663	-1205580.078	-7.352E-05	1.180E-03
7524.600	2.752	3623.588	-1205577.393	-7.899E-05	1.024E-03
7525.600	2.766	3623.545	-1205574.707	-7.230E-05	1.119E-03
7526.600	2.737	3623.455	-1205572.021	-7.109E-05	1.033E-03
7527.600	2.752	3623.441	-1205569.336	-7.960E-05	9.661E-04
7528.600	2.839	3623.417	-1205566.528	-6.137E-05	1.013E-03
7529.600	2.694	3623.335	-1205563.843	-6.805E-05	1.121E-03
7530.600	2.674	3623.320	-1205561.401	-6.684E-05	1.034E-03
7531.600	2.562	3623.266	-1205558.838	-8.142E-05	1.035E-03
7532.600	2.820	3623.241	-1205556.030	-6.197E-05	1.060E-03
7533.600	2.664	3623.180	-1205553.345	-5.347E-05	1.063E-03
7534.600	2.752	3623.148	-1205550.537	-8.081E-05	1.065E-03
7535.600	2.703	3623.087	-1205547.852	-7.048E-05	1.015E-03
7536.600	2.684	3623.120	-1205545.288	-7.291E-05	1.014E-03
7537.600	2.830	3623.061	-1205542.603	-7.960E-05	1.056E-03
7538.600	2.762	3623.015	-1205539.673	-8.081E-05	1.044E-03
7539.600	2.820	3623.015	-1205536.621	-5.954E-05	1.130E-03
7540.600	2.835	3622.992	-1205533.813	-8.749E-05	1.066E-03
7541.600	2.873	3622.927	-1205531.128	-8.324E-05	1.098E-03
7542.600	2.878	3622.900	-1205528.442	-8.324E-05	1.060E-03
7543.600	2.718	3622.884	-1205525.879	-8.628E-05	1.088E-03
7544.600	2.679	3622.880	-1205523.315	-5.772E-05	1.027E-03
7545.600	2.645	3622.865	-1205520.630	-8.506E-05	1.116E-03
7546.600	2.820	3622.851	-1205517.822	-8.446E-05	1.126E-03
7547.600	2.582	3622.809	-1205515.137	-5.894E-05	1.066E-03
7548.600	2.572	3622.802	-1205512.451	-7.716E-05	1.159E-03
7549.600	2.611	3622.760	-1205510.010	-7.838E-05	1.106E-03
7550.600	2.591	3622.729	-1205507.568	-7.413E-05	1.089E-03
7551.600	2.596	3622.741	-1205505.127	-8.567E-05	1.152E-03
7552.600	2.732	3622.694	-1205502.686	-6.137E-05	1.080E-03
7553.600	2.659	3622.696	-1205500.122	-8.263E-05	9.819E-04
7554.600	2.640	3622.665	-1205497.559	-8.567E-05	1.055E-03
7555.600	2.732	3622.678	-1205495.117	-6.380E-05	1.014E-03
7556.600	2.684	3622.679	-1205492.554	-8.324E-05	1.075E-03
7557.600	2.659	3622.675	-1205490.112	-7.777E-05	1.122E-03
7558.600	2.776	3622.616	-1205487.305	-6.562E-05	9.715E-04
7559.600	2.587	3622.591	-1205484.741	-7.291E-05	1.102E-03
7560.600	2.664	3622.596	-1205482.300	-8.628E-05	1.058E-03
7561.600	2.703	3622.569	-1205479.736	-8.446E-05	1.004E-03
7562.600	2.548	3622.547	-1205477.295	-7.473E-05	1.056E-03
7563.600	2.606	3622.563	-1205474.731	-6.744E-05	9.576E-04
7564.600	2.800	3622.563	-1205472.168	-8.385E-05	9.448E-04
7565.600	2.567	3622.557	-1205469.604	-8.628E-05	1.123E-03
7566.600	2.776	3622.521	-1205466.919	-5.408E-05	1.006E-03
7567.600	2.728	3622.556	-1205464.233	-6.987E-05	1.000E-03
7568.600	2.708	3622.514	-1205461.548	-8.628E-05	1.119E-03
7569.600	2.713	3622.504	-1205459.106	-7.109E-05	1.032E-03
7570.600	2.718	3622.464	-1205456.421	-6.441E-05	1.054E-03
7571.600	2.674	3622.473	-1205453.857	-6.623E-05	1.167E-03
7572.600	2.640	3622.469	-1205451.050	-8.992E-05	1.073E-03
7573.600	2.796	3622.489	-1205448.486	-6.137E-05	1.179E-03
7574.600	2.762	3622.423	-1205445.801	-5.651E-05	1.116E-03
7575.600	2.611	3622.460	-1205443.237	-6.866E-05	1.080E-03
7576.600	2.645	3622.445	-1205440.796	-8.749E-05	9.867E-04
7577.600	2.718	3622.427	-1205438.232	-7.534E-05	1.067E-03
7578.600	2.562	3622.358	-1205435.791	-6.562E-05	1.154E-03
7579.600	2.674	3622.391	-1205433.228	-7.473E-05	1.054E-03
7580.600	2.694	3622.412	-1205430.786	-6.684E-05	1.116E-03
7581.600	2.635	3622.402	-1205428.101	-8.142E-05	1.106E-03
7582.600	2.742	3622.369	-1205425.537	-7.595E-05	9.667E-04
7583.600	2.679	3622.370	-1205423.096	-6.137E-05	1.096E-03
7584.600	2.616	3622.378	-1205420.532	-6.805E-05	1.126E-03
7585.600	2.728	3622.398	-1205418.091	-7.595E-05	9.624E-04
7586.600	2.878	3622.406	-1205415.283	-7.716E-05	1.054E-03
7587.600	2.679	3622.360	-1205412.720	-6.258E-05	1.010E-03
7588.600	2.873	3622.377	-1205409.790	-6.684E-05	1.091E-03
7589.600	2.747	3622.378	-1205407.104	-7.899E-05	9.017E-04
7590.600	2.796	3622.352	-1205404.419	-7.777E-05	9.861E-04
7591.600	2.689	3622.371	-1205401.855	-7.230E-05	1.090E-03
7592.600	2.713	3622.306	-1205399.292	-6.501E-05	9.363E-04
7593.600	2.864	3622.358	-1205396.606	-6.380E-05	9.770E-04
7594.600	2.742	3622.365	-1205393.921	-9.114E-05	1.160E-03
7595.600	2.635	3622.334	-1205391.113	-7.352E-05	1.136E-03
7596.600	2.630	3622.323	-1205388.672	-8.506E-05	1.051E-03
7597.600	2.689	3622.301	-1205386.108	-8.385E-05	1.118E-03
7598.600	2.703	3622.328	-1205383.423	-6.562E-05	1.149E-03
7599.600	2.698	3622.327	-1205380.859	-8.810E-05	1.126E-03
7600.600	2.854	3622.307	-1205378.052	-7.230E-05	1.078E-03
7601.600	2.766	3622.279	-1205375.244	-6.987E-05	1.170E-03
7602.600	2.577	3622.312	-1205372.559	-5.529E-05	1.125E-03
7603.600	2.548	3622.319	-1205370.117	-7.170E-05	1.096E-03
7604.600	2.718	3622.307	-1205367.554	-8.324E-05	1.182E-03
7605.600	2.737	3622.304	-1205364.990	-5.651E-05	1.164E-03
7606.600	2.703	3622.317	-1205362.427	-7.230E-05	1.019E-03
7607.600	2.912	3622.303	-1205359.619	-6.744E-05	1.091E-03
7608.600	2.747	3622.219	-1205356.812	-9.357E-05	1.072E-03
7609.600	2.625	3622.288	-1205354.370	-7.291E-05	1.092E-03
7610.600	2.723	3622.273	-1205351.929	-5.590E-05	1.089E-03
7611.600	2.596	3622.283	-1205349.487	-6.805E-05	1.036E-03
7612.600	2.640	3622.292	-1205346.924	-8.446E-05	1.130E-03
7613.600	2.893	3622.261	-1205344.360	-6.987E-05	1.004E-03
7614.600	2.742	3622.267	-1205341.553	-8.203E-05	1.047E-03
7615.600	2.752	3622.236	-1205338.867	-6.987E-05	1.060E-03
7616.600	2.689	3622.228	-1205336.304	-8.689E-05	1.027E-03
7617.600	2.815	3622.292	-1205333.252	-5.954E-05	1.058E-03
7618.600	2.898	3622.277	-1205330.688	-7.109E-05	1.164E-03
7619.600	2.659	3622.260	-1205328.003	-6.015E-05	1.095E-03
7620.600	2.786	3622.265	-1205325.195	-7.899E-05	1.154E-03
7621.600	2.601	3622.264	-1205322.388	-8.810E-05	1.027E-03
7622.600	2.883	3622.231	-1205319.458	-7.777E-05	1.068E-03
7623.200	2.606	3622.213	-1205317.871	-7.413E-05	1.066E-03
7623.400	-247.147	3605.711	-1205367.310	-7.595E-05	9.655E-04
7623.800	-247.356	3605.474	-1205466.187	-6.684E-05	1.065E-03
7624.600	-247.429	3605.180	-1205663.940	-8.142E-05	1.136E-03
7625.600	-247.373	3604.894	-1205911.133	-8.992E-05	1.078E-03
7626.600	-247.504	3604.587	-1206158.447	-7.960E-05	1.046E-03
7627.600	-247.407	3604.352	-1206405.640	-8.628E-05	1.232E-03
7628.600	-247.314	3604.113	-1206652.832	-6.866E-05	1.165E-03
7629.600	-247.305	3603.930	-1206900.024	-7.291E-05	1.130E-03
7630.600	-247.368	3603.716	-1207147.217	-8.020E-05	1.190E-03
7631.600	-247.528	3603.556	-1207394.531	-8.446E-05	1.047E-03
7632.600	-247.431	3603.388	-1207641.846	-6.684E-05	9.977E-04
7633.600	-247.363	3603.243	-1207889.160	-6.987E-05	1.115E-03
7634.600	-247.322	3603.076	-1208136.353	-8.992E-05	1.119E-03
7635.600	-247.434	3602.939	-1208383.545	-8.628E-05	1.021E-03
7636.600	-247.268	3602.812	-1208630.737	-7.716E-05	1.099E-03
7637.600	-247.399	3602.665	-1208877.930	-6.562E-05	1.103E-03
7638.600	-247.470	3602.535	-1209125.122	-8.203E-05	1.014E-03
7639.600	-247.370	3602.446	-1209372.314	-8.203E-05	1.131E-03
7640.600	-247.417	3602.309	-1209619.629	-8.142E-05	1.105E-03
7641.600	-247.453	3602.179	-1209866.821	-8.567E-05	9.892E-04
7642.600	-247.251	3602.054	-1210114.014	-6.684E-05	1.121E-03
7643.600	-247.385	3601.957	-1210361.206	-5.408E-05	1.116E-03
7644.600	-247.361	3601.852	-1210608.398	-7.656E-05	1.075E-03
7645.600	-247.254	3601.753	-1210855.591	-8.203E-05	1.010E-03
7646.600	-247.514	3601.678	-1211103.027	-6.623E-05	1.080E-03
7647.600	-247.397	3601.540	-1211350.342	-6.380E-05	1.085E-03
7648.600	-247.426	3601.490	-1211597.534	-6.197E-05	1.120E-03
7649.600	-247.429	3601.399	-1211844.727	-9.357E-05	1.102E-03
7650.600	-247.244	3601.304	-1212091.919	-5.104E-05	1.124E-03
7651.600	-247.480	3601.199	-1212339.111	-6.137E-05	1.173E-03
7652.600	-247.375	3601.150	-1212586.304	-9.357E-05	1.020E-03
7653.600	-247.502	3601.038	-1212833.740	-8.203E-05	1.094E-03
7654.600	-247.193	3600.961	-1213080.933	-6.987E-05	1.178E-03
7655.600	-247.329	3600.878	-1213328.125	-7.960E-05	1.199E-03
7656.600	-247.502	3600.805	-1213575.439	-7.838E-05	1.035E-03
7657.600	-247.414	3600.715	-1213822.632	-8.932E-05	9.418E-04
7658.600	-247.317	3600.651	-1214069.946	-6.319E-05	1.073E-03
7659.600	-247.251	3600.588	-1214317.139	-6.987E-05	1.003E-03
7660.600	-247.487	3600.484	-1214564.331	-6.623E-05	1.092E-03
7661.600	-247.521	3600.417	-1214811.768	-7.899E-05	1.085E-03
7662.600	-247.402	3600.354	-1215059.204	-7.048E-05	1.065E-03
7663.600	-247.395	3600.251	-1215306.519	-6.015E-05	1.062E-03
7664.600	-247.523	3600.160	-1215553.955	-5.590E-05	1.134E-03
7665.600	-247.438	3600.092	-1215801.392	-5.408E-05	1.109E-03
7666.600	-247.489	3600.021	-1216048.706	-7.656E-05	9.740E-04
7667.600	-247.356	3599.940	-1216295.898	-7.595E-05	1.024E-03
7668.600	-247.285	3599.917	-1216543.213	-1.045E-04	1.083E-03
7669.600	-247.356	3599.860	-1216790.405	-5.711E-05	1.114E-03
7670.600	-247.263	3599.798	-1217037.598	-7.534E-05	1.017E-03
7671.600	-247.579	3599.720	-1217284.912	-6.684E-05	9.940E-04
7672.600	-247.285	3599.671	-1217532.349	-5.711E-05	1.078E-03
7673.600	-247.482	3599.597	-1217779.907	-8.203E-05	1.072E-03
7674.600	-247.592	3599.529	-1218027.466	-6.015E-05	9.351E-04
7675.600	-247.509	3599.419	-1218274.902	-7.413E-05	1.053E-03
7676.600	-247.487	3599.428	-1218522.095	-8.992E-05	1.052E-03
7677.600	-247.434	3599.360	-1218769.409	-6.987E-05	1.085E-03
7678.600	-247.380	3599.297	-1219016.724	-7.413E-05	1.070E-03
7679.600	-247.458	3599.208	-1219264.038	-8.810E-05	1.217E-03
7680.600	-247.492	3599.129	-1219511.230	-6.744E-05	1.155E-03
7681.600	-247.382	3599.160	-1219758.423	-7.960E-05	9.375E-04
7682.600	-247.409	3599.072	-1220005.737	-6.987E-05	1.111E-03
7683.600	-247.373	3599.030	-1220253.052	-7.413E-05	1.060E-03
7684.600	-247.327	3598.990	-1220500.244	-9.296E-05	9.728E-04
7685.600	-247.319	3598.900	-1220747.559	-7.899E-05	1.136E-03
7686.600	-247.353	3598.858	-1220994.751	-7.899E-05	1.120E-03
7687.600	-247.241	3598.789	-1221241.943	-6.258E-05	1.036E-03
7688.600	-247.278	3598.746	-1221489.136	-8.628E-05	1.099E-03
7689.600	-247.417	3598.664	-1221736.328	-7.899E-05	1.074E-03
7690.600	-247.200	3598.591	-1221983.521	-7.230E-05	1.062E-03
7691.600	-247.382	3598.571	-1222230.713	-6.927E-05	9.928E-04
7692.600	-247.273	3598.484	-1222477.905	-7.899E-05	9.892E-04
7693.600	-247.382	3598.484	-1222725.098	-6.258E-05	1.004E-03
7694.600	-247.336	3598.411	-1222972.290	-8.324E-05	1.017E-03
7695.600	-247.441	3598.357	-1223219.604	-6.380E-05	1.058E-03
7696.600	-247.438	3598.321	-1223466.797	-8.263E-05	1.108E-03
7697.600	-247.404	3598.267	-1223713.989	-6.684E-05	1.058E-03
7698.600	-247.232	3598.179	-1223961.182	-8.506E-05	1.031E-03
7699.600	-247.358	3598.166	-1224208.496	-8.628E-05	1.040E-03
7700.600	-247.363	3598.117	-1224455.688	-6.501E-05	1.128E-03
7701.600	-247.412	3598.062	-1224702.881	-7.899E-05	1.029E-03
7702.600	-247.324	3598.008	-1224950.073	-1.015E-04	9.764E-04
7703.600	-247.434	3597.938	-1225197.266	-8.567E-05	1.108E-03
7704.600	-247.412	3597.893	-1225444.458	-7.109E-05	1.106E-03
7705.600	-247.334	3597.864	-1225691.650	-6.927E-05	1.039E-03
7706.600	-247.482	3597.786	-1225938.843	-5.711E-05	1.072E-03
7707.600	-247.339	3597.768	-1226186.035	-7.473E-05	1.013E-03
7708.600	-247.545	3597.725	-1226433.350	-8.810E-05	1.095E-03
7709.600	-247.485	3597.623	-1226680.542	-7.291E-05	1.140E-03
7710.600	-247.380	3597.607	-1226927.734	-8.081E-05	1.074E-03
7711.600	-247.436	3597.547	-1227175.049	-6.501E-05	1.106E-03
7712.600	-247.438	3597.500	-1227422.363	-7.960E-05	1.067E-03
7713.600	-247.395	3597.462	-1227669.556	-7.413E-05	1.078E-03
7714.600	-247.412	3597.391	-1227916.748	-6.501E-05	1.077E-03
7715.600	-247.521	3597.372	-1228164.307	-7.656E-05	9.825E-04
7716.600	-247.536	3597.290	-1228411.621	-6.623E-05	1.131E-03
7717.600	-247.426	3597.256	-1228658.936	-7.413E-05	1.028E-03
7718.600	-247.307	3597.219	-1228906.128	-8.203E-05	1.075E-03
7719.600	-247.380	3597.155	-1229153.320	-6.866E-05	1.075E-03
7720.600	-247.263	3597.151	-1229400.513	-6.866E-05	1.116E-03
7721.600	-247.261	3597.079	-1229647.705	-8.203E-05	9.430E-04
7722.600	-247.429	3597.045	-1229894.897	-7.170E-05	1.045E-03
7723.600	-247.361	3596.983	-1230142.090	-6.744E-05	1.055E-03
7724.600	-247.412	3596.926	-1230389.282	-7.109E-05	1.077E-03
7725.600	-247.293	3596.909	-1230636.475	-6.015E-05	1.106E-03
7726.600	-247.414	3596.871	-1230883.667	-5.529E-05	1.129E-03
7727.600	-247.375	3596.793	-1231130.859	-6.866E-05	1.180E-03
7728.600	-247.613	3596.740	-1231378.296	-7.473E-05	9.199E-04
7729.600	-247.283	3596.694	-1231625.488	-8.142E-05	1.063E-03
7730.600	-247.404	3596.658	-1231872.681	-6.927E-05	1.187E-03
7731.200	-247.305	3596.627	-1232020.996	-8.628E-05	1.023E-03
7731.400	2.557	3613.241	-1232020.508	-7.352E-05	1.103E-03
7731.800	2.694	3613.366	-1232019.531	-8.081E-05	1.250E-03
7732.600	2.796	3613.676	-1232017.212	-8.932E-05	1.145E-03
7733.600	2.796	3613.932	-1232014.648	-9.479E-05	1.119E-03
7734.600	2.698	3614.163	-1232012.207	-8.506E-05	1.069E-03
7735.600	2.611	3614.357	-1232009.521	-6.441E-05	9.892E-04
7736.600	2.762	3614.539	-1232006.836	-6.258E-05	1.133E-03
7737.600	2.587	3614.641	-1232004.028	-9.479E-05	1.136E-03
7738.600	2.732	3614.831	-1232001.343	-8.628E-05	1.052E-03
7739.600	2.873	3614.974	-1231998.535	-1.021E-04	1.072E-03
7740.600	2.635	3615.096	-1231995.850	-8.385E-05	1.113E-03
7741.600	2.820	3615.153	-1231993.042	-6.319E-05	1.014E-03
7742.600	2.713	3615.307	-1231990.356	-7.170E-05	1.015E-03
7743.600	2.664	3615.402	-1231987.427	-7.413E-05	9.740E-04
7744.600	2.800	3615.512	-1231984.863	-6.197E-05	8.932E-04
7745.600	2.611	3615.581	-1231982.178	-8.385E-05	9.242E-04
7746.600	2.708	3615.669	-1231979.614	-7.109E-05	1.103E-03
7747.600	2.732	3615.733	-1231976.929	-7.534E-05	1.065E-03
7748.600	2.655	3615.759	-1231974.243	-6.015E-05	1.032E-03
7749.600	2.718	3615.857	-1231971.802	-7.473E-05	1.026E-03
7750.600	2.708	3615.951	-1231969.116	-7.352E-05	9.430E-04
7751.600	2.650	3616.039	-1231966.187	-6.744E-05	9.703E-04
7752.600	2.844	3616.069	-1231963.501	-6.562E-05	1.072E-03
7753.600	2.606	3616.147	-1231960.938	-7.473E-05	1.128E-03
7754.600	2.830	3616.135	-1231958.008	-7.352E-05	1.015E-03
7755.600	2.514	3616.220	-1231955.444	-8.385E-05	1.080E-03
7756.600	2.728	3616.309	-1231952.881	-8.871E-05	1.091E-03
7757.600	2.713	3616.302	-1231950.439	-8.203E-05	1.066E-03
7758.600	2.514	3616.390	-1231947.998	-6.805E-05	1.068E-03
7759.600	2.732	3616.407	-1231945.557	-6.441E-05	1.087E-03
7760.600	2.694	3616.463	-1231943.115	-6.015E-05	1.232E-03
7761.600	2.659	3616.506	-1231940.674	-6.562E-05	1.167E-03
7762.600	2.825	3616.530	-1231937.988	-6.441E-05	1.053E-03
7763.600	2.669	3616.608	-1231935.181	-8.324E-05	1.046E-03
7764.600	2.650	3616.601	-1231932.617	-8.506E-05	1.108E-03
7765.600	2.577	3616.653	-1231930.054	-6.623E-05	1.020E-03
7766.600	2.698	3616.704	-1231927.246	-9.661E-05	1.023E-03
7767.600	2.611	3616.652	-1231924.561	-7.534E-05	9.946E-04
7768.600	2.873	3616.748	-1231921.631	-7.109E-05	1.061E-03
7769.600	2.922	3616.751	-1231918.701	-6.684E-05	1.106E-03
7770.600	2.659	3616.803	-1231916.138	-6.866E-05	1.099E-03
7771.600	2.752	3616.832	-1231913.086	-8.324E-05	9.965E-04
7772.600	2.854	3616.854	-1231910.400	-6.866E-05	1.020E-03
7773.600	2.820	3616.884	-1231907.471	-6.684E-05	1.108E-03
7774.600	2.830	3616.946	-1231904.541	-7.656E-05	1.083E-03
7775.600	2.713	3616.944	-1231901.855	-8.020E-05	9.764E-04
7776.600	2.645	3616.951	-1231899.414	-7.413E-05	1.178E-03
7777.600	2.766	3617.012	-1231896.851	-7.291E-05	1.085E-03
7778.600	2.655	3617.025	-1231894.043	-6.441E-05	9.551E-04
7779.600	2.718	3617.054	-1231891.602	-7.716E-05	1.041E-03
7780.600	2.698	3617.072	-1231888.916	-7.595E-05	1.088E-03
7781.600	2.645	3617.083	-1231886.353	-8.081E-05	1.029E-03
7782.600	2.752	3617.114	-1231883.545	-7.048E-05	1.094E-03
7783.600	2.757	3617.127	-1231880.493	-6.197E-05	1.140E-03
7784.600	2.674	3617.167	-1231877.930	-5.468E-05	1.052E-03
7785.600	2.625	3617.187	-1231875.122	-7.352E-05	1.029E-03
7786.600	2.689	3617.199	-1231872.314	-6.197E-05	1.164E-03
7787.600	2.805	3617.222	-1231869.507	-7.473E-05	9.965E-04
7788.600	2.752	3617.234	-1231866.943	-8.689E-05	1.103E-03
7789.600	2.781	3617.247	-1231864.136	-6.684E-05	1.057E-03
7790.600	2.728	3617.265	-1231861.328	-6.684E-05	1.150E-03
7791.600	2.650	3617.267	-1231858.643	-8.020E-05	1.112E-03
7792.600	2.625	3617.278	-1231856.201	-6.927E-05	9.600E-04
7793.600	2.703	3617.288	-1231853.760	-9.053E-05	9.807E-04
7794.600	2.582	3617.327	-1231851.318	-7.960E-05	1.083E-03
7795.600	2.436	3617.334	-1231848.633	-8.263E-05	1.000E-03
7796.600	2.757	3617.324	-1231846.069	-7.048E-05	1.037E-03
7797.600	2.679	3617.381	-1231843.628	-7.960E-05	1.058E-03
7798.600	2.674	3617.381	-1231841.187	-7.291E-05	9.345E-04
7799.600	2.698	3617.350	-1231838.745	-8.628E-05	8.920E-04
7800.600	2.621	3617.396	-1231836.304	-7.777E-05	9.272E-04
7801.600	2.606	3617.429	-1231833.496	-8.203E-05	1.095E-03
7802.600	2.616	3617.419	-1231831.055	-8.385E-05	1.137E-03
7803.600	2.684	3617.452	-1231828.613	-7.960E-05	1.070E-03
7804.600	2.655	3617.436	-1231825.928	-7.656E-05	1.038E-03
7805.600	2.621	3617.485	-1231823.364	-7.899E-05	1.143E-03
7806.600	2.567	3617.514	-1231820.801	-8.567E-05	1.176E-03
7807.600	2.771	3617.488	-1231818.115	-6.319E-05	1.102E-03
7808.600	2.742	3617.479	-1231815.430	-8.142E-05	1.029E-03
7809.600	2.728	3617.476	-1231812.744	-8.932E-05	1.210E-03
7810.600	2.762	3617.544	-1231809.814	-8.446E-05	1.057E-03
7811.600	2.830	3617.535	-1231807.129	-7.230E-05	1.072E-03
7812.600	2.640	3617.541	-1231804.443	-6.562E-05	1.118E-03
7813.600	2.606	3617.557	-1231802.002	-7.777E-05	1.099E-03
7814.600	2.616	3617.560	-1231799.561	-6.319E-05	1.097E-03
7815.600	2.898	3617.598	-1231796.997	-7.352E-05	1.198E-03
7816.600	2.484	3617.581	-1231794.312	-7.534E-05	9.959E-04
7817.600	2.786	3617.595	-1231791.382	-6.501E-05	1.009E-03
7818.600	2.776	3617.595	-1231788.818	-7.716E-05	1.124E-03
7819.600	2.674	3617.597	-1231786.255	-7.777E-05	1.116E-03
7820.600	2.854	3617.627	-1231783.325	-5.529E-05	1.114E-03
7821.600	2.757	3617.619	-1231780.396	-7.291E-05	1.066E-03
7822.600	2.869	3617.644	-1231777.466	-6.441E-05	1.006E-03
7823.600	2.815	3617.682	-1231774.414	-7.534E-05	9.503E-04
7824.600	2.781	3617.630	-1231771.606	-8.628E-05	1.068E-03
7825.600	2.577	3617.668	-1231769.043	-6.805E-05	1.174E-03
7826.600	2.601	3617.628	-1231766.602	-8.689E-05	1.043E-03
7827.600	2.728	3617.644	-1231763.916	-8.810E-05	1.052E-03
7828.600	2.849	3617.691	-1231761.230	-7.534E-05	1.189E-03
7829.600	2.752	3617.697	-1231758.179	-6.015E-05	1.028E-03
7830.600	2.577	3617.707	-1231755.615	-8.446E-05	1.040E-03
7831.600	2.577	3617.748	-1231752.930	-7.534E-05	1.035E-03
7832.600	2.878	3617.714	-1231750.122	-7.716E-05	1.120E-03
7833.600	2.747	3617.704	-1231747.192	-8.081E-05	1.088E-03
7834.600	2.713	3617.722	-1231744.507	-7.595E-05	1.151E-03
7835.600	2.825	3617.763	-1231741.943	-8.385E-05	1.137E-03
7836.600	2.830	3617.769	-1231738.892	-6.866E-05	1.070E-03
7837.600	2.781	3617.764	-1231736.084	-7.960E-05	1.077E-03
7838.600	2.742	3617.775	-1231733.276	-6.258E-05	1.053E-03
7839.600	2.679	3617.766	-1231730.835	-7.716E-05	1.151E-03
7840.600	2.718	3617.766	-1231728.027	-7.534E-05	1.151E-03
7841.600	2.669	3617.784	-1231725.586	-8.567E-05	1.041E-03
7842.600	2.684	3617.812	-1231723.022	-7.595E-05	1.011E-03
7843.600	2.718	3617.826	-1231720.581	-8.385E-05	1.098E-03
7844.600	2.708	3617.821	-1231718.018	-8.628E-05	1.021E-03
7845.600	2.664	3617.806	-1231715.576	-7.048E-05	1.080E-03
7846.600	2.757	3617.841	-1231712.769	-9.053E-05	9.764E-04
7847.600	2.742	3617.815	-1231710.083	-7.291E-05	1.063E-03
7848.600	2.835	3617.861	-1231707.397	-7.352E-05	1.139E-03
7849.600	2.703	3617.869	-1231704.834	-7.899E-05	1.049E-03
7850.600	2.737	3617.881	-1231702.393	-7.899E-05	1.157E-03
7851.200	2.606	3617.893	-1231700.806	-6.258E-05	1.024E-03
7851.400	502.150	3650.945	-1231600.342	-6.441E-05	1.054E-03
7851.800	502.403	3651.395	-1231399.414	-6.441E-05	1.102E-03
7852.600	502.413	3652.088	-1230997.559	-5.772E-05	1.122E-03
7853.600	502.505	3652.661	-1230495.239	-7.170E-05	9.904E-04
7854.600	502.661	3653.177	-1229992.798	-6.319E-05	1.045E-03
7855.600	502.437	3653.690	-1229490.479	-8.263E-05	1.187E-03
7856.600	502.408	3654.123	-1228988.159	-6.866E-05	1.042E-03
7857.600	502.403	3654.537	-1228485.840	-6.623E-05	1.030E-03
7858.600	502.632	3654.880	-1227983.276	-7.048E-05	1.085E-03
7859.600	502.461	3655.265	-1227480.713	-6.380E-05	1.153E-03
7860.600	502.554	3655.606	-1226978.149	-8.385E-05	1.089E-03
7861.600	502.598	3655.890	-1226475.708	-8.385E-05	1.053E-03
7862.600	502.641	3656.221	-1225972.900	-9.296E-05	1.052E-03
7863.600	502.491	3656.487	-1225470.581	-6.501E-05	9.898E-04
7864.600	502.549	3656.753	-1224968.262	-7.534E-05	1.151E-03
7865.600	502.418	3657.040	-1224465.942	-7.048E-05	1.022E-03
7866.600	502.510	3657.242	-1223963.501	-7.656E-05	1.126E-03
7867.600	502.627	3657.539	-1223460.938	-6.684E-05	1.060E-03
7868.600	502.578	3657.780	-1222958.496	-8.142E-05	1.030E-03
7869.600	502.563	3658.010	-1222455.811	-6.866E-05	1.101E-03
7870.600	502.583	3658.249	-1221953.247	-9.114E-05	1.017E-03
7871.600	502.821	3658.451	-1221450.439	-6.258E-05	1.049E-03
7872.600	502.700	3658.592	-1220947.998	-7.291E-05	1.010E-03
7873.600	502.500	3658.853	-1220445.679	-7.534E-05	1.080E-03
7874.600	502.471	3659.049	-1219943.115	-7.595E-05	9.831E-04
7875.600	502.617	3659.247	-1219440.796	-7.595E-05	1.113E-03
7876.600	502.559	3659.444	-1218938.110	-5.590E-05	1.064E-03
7877.600	502.670	3659.641	-1218435.547	-7.109E-05	1.029E-03
7878.600	502.340	3659.755	-1217933.105	-6.805E-05	1.066E-03
7879.600	502.573	3659.982	-1217430.786	-7.716E-05	9.825E-04
7880.600	502.554	3660.146	-1216928.467	-6.744E-05	1.083E-03
7881.600	502.476	3660.323	-1216426.025	-8.506E-05	1.024E-03
7882.600	502.423	3660.474	-1215923.584	-7.413E-05	1.071E-03
7883.600	502.661	3660.606	-1215421.143	-7.716E-05	1.083E-03
7884.600	502.777	3660.783	-1214918.701	-9.053E-05	1.018E-03
7885.600	502.607	3660.948	-1214416.382	-6.866E-05	1.102E-03
7886.600	502.578	3661.103	-1213914.063	-7.473E-05	9.928E-04
7887.600	502.481	3661.219	-1213411.621	-9.418E-05	1.037E-03
7888.600	502.670	3661.385	-1212908.936	-6.866E-05	9.770E-04
7889.600	502.578	3661.500	-1212406.372	-7.716E-05	1.132E-03
7890.600	502.432	3661.643	-1211904.053	-7.230E-05	1.161E-03
7891.600	502.695	3661.784	-1211401.123	-9.235E-05	1.176E-03
7892.600	502.666	3661.905	-1210898.193	-7.777E-05	1.058E-03
7893.600	502.617	3662.070	-1210395.752	-5.954E-05	1.077E-03
7894.600	502.617	3662.169	-1209893.311	-8.324E-05	1.130E-03
7895.600	502.617	3662.243	-1209390.869	-8.506E-05	1.016E-03
7896.600	502.670	3662.473	-1208888.428	-7.534E-05	1.044E-03
7897.600	502.646	3662.583	-1208385.742	-6.927E-05	1.141E-03
7898.600	502.495	3662.663	-1207883.301	-7.838E-05	9.849E-04
7899.600	502.481	3662.804	-1207380.737	-6.684E-05	1.013E-03
7900.600	502.607	3662.922	-1206878.174	-5.833E-05	1.173E-03
7901.600	502.656	3663.027	-1206375.366	-6.684E-05	1.039E-03
7902.600	502.675	3663.126	-1205872.803	-7.716E-05	1.099E-03
7903.600	502.656	3663.237	-1205370.239	-6.866E-05	8.743E-04
7904.600	502.607	3663.380	-1204867.676	-7.352E-05	1.120E-03
7905.200	502.549	3663.414	-1204566.162	-8.932E-05	1.058E-03
7905.400	3.287	3630.433	-1204565.552	-7.291E-05	1.046E-03
7905.800	2.796	3630.016	-1204564.331	-6.684E-05	1.136E-03
7906.600	2.766	3629.461	-1204562.012	-6.197E-05	1.040E-03
7907.600	2.917	3629.005	-1204558.960	-7.899E-05	1.034E-03
7908.600	2.859	3628.599	-1204555.908	-7.777E-05	1.056E-03
7909.600	2.723	3628.233	-1204552.979	-6.684E-05	1.204E-03
7910.600	2.878	3627.885	-1204550.049	-6.866E-05	1.123E-03
7911.600	2.825	3627.640	-1204547.241	-7.473E-05	1.106E-03
7912.600	2.815	3627.353	-1204544.189	-8.203E-05	1.161E-03
7913.600	2.728	3627.093	-1204541.504	-8.324E-05	1.020E-03
7914.600	2.835	3626.906	-1204538.696	-5.104E-05	1.026E-03
7915.600	2.713	3626.665	-1204536.011	-9.114E-05	1.086E-03
7916.600	2.771	3626.530	-1204533.203	-8.567E-05	1.107E-03
7917.600	2.601	3626.316	-1204530.396	-8.810E-05	1.006E-03
7918.600	2.757	3626.191	-1204527.832	-1.039E-04	1.116E-03
7919.600	2.878	3626.002	-1204524.780	-8.263E-05	1.052E-03
7920.600	2.703	3625.902	-1204522.217	-7.413E-05	1.106E-03
7921.600	2.791	3625.725	-1204519.653	-6.197E-05	1.157E-03
7922.600	2.601	3625.585	-1204516.968	-8.385E-05	9.199E-04
7923.600	2.718	3625.466	-1204514.282	-9.296E-05	1.125E-03
7924.600	2.689	3625.412	-1204511.719	-8.324E-05	9.977E-04
7925.600	2.630	3625.294	-1204508.789	-6.076E-05	9.934E-04
7926.600	2.762	3625.183	-1204506.104	-8.142E-05	9.649E-04
7927.600	2.718	3625.066	-1204503.540	-7.960E-05	1.023E-03
7928.600	2.878	3624.989	-1204500.732	-5.954E-05	1.029E-03
7929.600	2.820	3624.909	-1204497.803	-6.623E-05	1.035E-03
7930.600	2.635	3624.832	-1204494.995	-6.927E-05	1.112E-03
7931.600	2.820	3624.725	-1204492.432	-7.534E-05	1.113E-03
7932.600	2.762	3624.708	-1204489.868	-6.866E-05	1.078E-03
7933.600	2.776	3624.617	-1204486.938	-6.744E-05	9.570E-04
7934.600	2.757	3624.528	-1204484.253	-6.623E-05	1.100E-03
7935.600	2.888	3624.466	-1204481.323	-6.866E-05	1.176E-03
7936.600	2.956	3624.444	-1204478.516	-7.109E-05	1.093E-03
7937.600	2.703	3624.343	-1204475.952	-7.413E-05	1.147E-03
7938.600	2.679	3624.269	-1204473.267	-8.567E-05	1.183E-03
7939.600	2.791	3624.257	-1204470.581	-7.960E-05	1.037E-03
7940.600	2.747	3624.193	-1204467.896	-6.684E-05	1.157E-03
7941.600	2.582	3624.139	-1204465.332	-6.623E-05	9.776E-04
7942.600	2.587	3624.123	-1204462.769	-8.324E-05	1.182E-03
7943.600	2.659	3624.046	-1204460.205	-6.076E-05	1.100E-03
7944.600	2.883	3624.015	-1204457.642	-7.534E-05	1.015E-03
7945.600	2.723	3623.987	-1204454.956	-6.744E-05	1.205E-03
7946.600	2.659	3623.906	-1204452.393	-7.352E-05	1.103E-03
7947.600	2.825	3623.880	-1204449.585	-7.777E-05	9.837E-04
7948.600	2.684	3623.885	-1204447.021	-5.225E-05	1.120E-03
7949.600	2.659	3623.839	-1204444.458	-6.684E-05	1.017E-03
7950.600	2.659	3623.811	-1204442.017	-6.137E-05	1.002E-03
7951.600	2.694	3623.801	-1204439.575	-7.109E-05	1.106E-03
7952.600	2.752	3623.742	-1204437.012	-7.716E-05	9.934E-04
7953.600	2.694	3623.694	-1204434.326	-7.716E-05	1.036E-03
7954.600	2.645	3623.663	-1204431.885	-7.838E-05	1.174E-03
7955.600	2.659	3623.677	-1204429.321	-8.263E-05	9.910E-04
7956.600	2.839	3623.642	-1204426.758	-6.380E-05	1.144E-03
7957.600	2.659	3623.604	-1204424.194	-8.932E-05	1.018E-03
7958.600	2.728	3623.623	-1204421.631	-7.595E-05	9.916E-04
7959.600	2.689	3623.599	-1204418.823	-9.418E-05	1.030E-03
7960.600	2.771	3623.570	-1204416.138	-8.446E-05	1.018E-03
7961.600	2.655	3623.557	-1204413.452	-7.352E-05	1.012E-03
7962.600	2.869	3623.543	-1204410.645	-7.291E-05	1.058E-03
7963.600	2.898	3623.511	-1204407.715	-7.048E-05	9.746E-04
7964.600	2.732	3623.478	-1204404.907	-8.263E-05	1.126E-03
7965.600	2.771	3623.450	-1204401.855	-8.446E-05	1.031E-03
7966.600	2.883	3623.419	-1204398.804	-6.501E-05	1.091E-03
7967.600	2.878	3623.401	-1204395.752	-6.684E-05	1.099E-03
7968.600	2.723	3623.392	-1204393.066	-8.142E-05	1.023E-03
7969.600	2.776	3623.400	-1204390.015	-8.385E-05	1.105E-03
7970.600	2.664	3623.311	-1204387.207	-7.595E-05	9.673E-04
7971.600	2.732	3623.331	-1204384.399	-7.595E-05	1.038E-03
7972.600	2.752	3623.360	-1204381.836	-7.777E-05	1.175E-03
7973.600	2.835	3623.315	-1204379.272	-6.197E-05	1.057E-03
7974.600	2.786	3623.306	-1204376.343	-7.595E-05	1.017E-03
7975.600	2.689	3623.274	-1204373.657	-7.291E-05	1.207E-03
7976.600	2.713	3623.298	-1204370.972	-8.020E-05	1.095E-03
7977.600	2.776	3623.253	-1204368.164	-7.960E-05	1.111E-03
7978.600	2.791	3623.253	-1204365.234	-7.230E-05	1.100E-03
7979.600	2.742	3623.292	-1204362.549	-8.446E-05	1.144E-03
7980.600	2.781	3623.219	-1204359.741	-6.684E-05	1.040E-03
7981.600	2.601	3623.258	-1204356.934	-7.960E-05	1.026E-03
7982.600	2.708	3623.194	-1204354.370	-8.203E-05	1.136E-03
7983.600	2.679	3623.205	-1204351.929	-8.263E-05	9.163E-04
7984.600	2.747	3623.209	-1204349.243	-8.506E-05	9.886E-04
7985.600	2.742	3623.174	-1204346.680	-7.838E-05	1.020E-03
7986.600	2.611	3623.149	-1204343.872	-6.805E-05	9.940E-04
7987.600	2.742	3623.190	-1204341.431	-6.623E-05	1.033E-03
7988.600	2.830	3623.124	-1204338.867	-6.015E-05	1.020E-03
7989.600	2.606	3623.160	-1204336.182	-8.142E-05	1.051E-03
7990.600	2.723	3623.102	-1204333.496	-7.109E-05	1.019E-03
7991.600	2.659	3623.121	-1204330.688	-6.562E-05	1.148E-03
7992.600	2.635	3623.098	-1204328.125	-8.506E-05	1.069E-03
7993.600	2.752	3623.106	-1204325.562	-6.866E-05	1.127E-03
7994.600	2.762	3623.143	-1204322.998	-6.866E-05	1.012E-03
7995.600	2.664	3623.107	-1204320.557	-7.413E-05	1.038E-03
7996.600	2.805	3623.089	-1204317.627	-6.684E-05	1.123E-03
7997.600	2.907	3623.094	-1204314.575	-7.170E-05	1.106E-03
7998.600	2.752	3623.090	-1204311.646	-9.053E-05	1.009E-03
7999.600	2.621	3623.070	-1204308.960	-6.076E-05	1.085E-03
8000.600	2.630	3623.039	-1204306.519	-6.684E-05	1.052E-03
8001.600	2.888	3623.049	-1204303.711	-8.628E-05	1.113E-03
8002.600	2.878	3623.039	-1204300.903	-6.744E-05	1.092E-03
8003.600	2.518	3623.001	-1204298.340	-7.716E-05	1.085E-03
8004.600	2.762	3623.030	-1204295.654	-6.258E-05	1.074E-03
8005.600	2.630	3623.052	-1204292.969	-6.744E-05	1.013E-03
8006.600	2.791	3623.015	-1204290.039	-7.534E-05	1.088E-03
8007.600	2.791	3623.008	-1204287.231	-7.230E-05	1.068E-03
8008.600	2.708	3623.026	-1204284.668	-8.324E-05	1.009E-03
8009.600	2.825	3623.004	-1204281.982	-6.866E-05	1.111E-03
8010.600	2.786	3623.009	-1204279.419	-6.987E-05	1.057E-03
8011.600	2.810	3622.996	-1204276.855	-5.711E-05	1.046E-03
8012.600	2.650	3622.955	-1204274.292	-6.441E-05	9.673E-04
8013.600	2.606	3622.974	-1204271.851	-6.197E-05	1.076E-03
8014.600	2.674	3622.988	-1204269.409	-6.197E-05	1.022E-03
8015.600	2.577	3622.993	-1204266.846	-5.529E-05	1.027E-03
8016.600	2.553	3622.973	-1204264.404	-8.081E-05	1.041E-03
8017.600	2.757	3622.944	-1204261.597	-7.291E-05	1.087E-03
8018.600	2.776	3622.942	-1204258.789	-8.263E-05	1.043E-03
8019.600	2.587	3622.970	-1204256.348	-8.446E-05	1.043E-03
8020.600	2.766	3622.977	-1204253.784	-7.595E-05	1.134E-03
8021.600	2.655	3622.950	-1204251.099	-6.319E-05	1.024E-03
8022.600	2.694	3622.971	-1204248.535	-7.109E-05	1.093E-03
8023.600	2.694	3622.954	-1204246.094	-7.777E-05	1.026E-03
8024.600	2.980	3622.921	-1204243.286	-8.142E-05	1.074E-03
8025.200	2.659	3622.948	-1204241.821	-7.960E-05	1.049E-03
8025.400	-497.009	3589.852	-1204341.187	-6.501E-05	9.788E-04
8025.800	-497.091	3589.387	-1204540.039	-6.927E-05	1.138E-03
8026.600	-497.262	3588.769	-1204937.866	-6.562E-05	1.120E-03
8027.600	-497.325	3588.221	-1205435.181	-6.805E-05	1.137E-03
8028.600	-497.291	3587.665	-1205932.617	-6.866E-05	1.058E-03
8029.600	-497.237	3587.182	-1206430.054	-7.777E-05	1.066E-03
8030.600	-497.300	3586.712	-1206927.490	-6.258E-05	9.898E-04
8031.600	-497.371	3586.285	-1207424.805	-6.319E-05	1.080E-03
8032.600	-497.317	3585.999	-1207922.241	-8.263E-05	9.934E-04
8033.600	-497.383	3585.623	-1208419.678	-6.987E-05	1.065E-03
8034.600	-497.320	3585.253	-1208917.114	-7.170E-05	1.047E-03
8035.600	-497.381	3584.963	-1209414.551	-6.744E-05	1.035E-03
8036.600	-497.259	3584.660	-1209911.987	-5.590E-05	1.099E-03
8037.600	-497.215	3584.383	-1210409.424	-8.263E-05	1.048E-03
8038.600	-497.415	3584.099	-1210906.860	-8.749E-05	1.077E-03
8039.600	-497.281	3583.861	-1211404.297	-8.081E-05	1.076E-03
8040.600	-497.344	3583.590	-1211901.733	-7.291E-05	1.040E-03
8041.600	-497.264	3583.344	-1212399.170	-7.716E-05	1.115E-03
8042.600	-497.354	3583.097	-1212896.606	-6.866E-05	9.910E-04
8043.600	-497.225	3582.864	-1213394.043	-6.744E-05	1.071E-03
8044.600	-497.361	3582.662	-1213891.479	-8.871E-05	1.120E-03
8045.600	-497.317	3582.467	-1214388.916	-6.623E-05	1.070E-03
8046.600	-497.310	3582.265	-1214886.353	-7.230E-05	1.052E-03
8047.600	-497.434	3581.991	-1215383.789	-7.777E-05	1.096E-03
8048.600	-497.437	3581.852	-1215881.226	-7.352E-05	1.094E-03
8049.600	-497.142	3581.654	-1216378.662	-7.534E-05	1.045E-03
8050.600	-497.257	3581.499	-1216876.099	-6.441E-05	1.095E-03
8051.600	-497.383	3581.285	-1217373.535	-7.413E-05	1.058E-03
8052.600	-497.381	3581.098	-1217870.972	-7.048E-05	1.131E-03
8053.600	-497.293	3580.912	-1218368.408	-8.871E-05	1.102E-03
8054.600	-497.342	3580.796	-1218865.845	-7.656E-05	1.105E-03
8055.600	-497.354	3580.617	-1219363.281	-7.230E-05	1.149E-03
8056.600	-497.313	3580.443	-1219860.718	-7.291E-05	1.066E-03
8057.600	-497.218	3580.282	-1220358.154	-7.716E-05	1.087E-03
8058.600	-497.388	3580.118	-1220855.591	-6.501E-05	1.100E-03
8059.600	-497.366	3579.952	-1221353.027	-6.684E-05	1.136E-03
8060.600	-497.344	3579.816	-1221850.464	-8.689E-05	1.088E-03
8061.600	-497.381	3579.684	-1222347.900	-7.473E-05	9.940E-04
8062.600	-497.422	3579.514	-1222845.337	-6.197E-05	1.086E-03
8063.600	-497.366	3579.396	-1223342.773	-6.927E-05	9.849E-04
8064.600	-497.213	3579.238	-1223840.210	-5.894E-05	1.109E-03
8065.600	-497.369	3579.085	-1224337.646	-6.197E-05	9.983E-04
8066.600	-497.473	3578.957	-1224835.083	-8.749E-05	1.125E-03
8067.600	-497.463	3578.861	-1225332.520	-7.656E-05	9.861E-04
8068.600	-497.339	3578.704	-1225829.956	-7.656E-05	1.118E-03
8069.600	-497.252	3578.547	-1226327.393	-7.473E-05	1.036E-03
8070.600	-497.439	3578.444	-1226824.829	-6.987E-05	1.016E-03
8071.600	-497.371	3578.307	-1227322.266	-7.595E-05	9.922E-04
8072.600	-497.337	3578.197	-1227819.702	-7.534E-05	1.152E-03
8073.600	-497.310	3578.068	-1228317.139	-6.866E-05	1.148E-03
8074.600	-497.276	3577.945	-1228814.575	-6.562E-05	1.034E-03
8075.600	-497.383	3577.800	-1229312.012	-6.501E-05	1.154E-03
8076.600	-497.364	3577.672	-1229809.448	-7.899E-05	1.025E-03
8077.600	-497.412	3577.557	-1230306.885	-6.501E-05	1.130E-03
8078.600	-497.507	3577.430	-1230804.321	-7.960E-05	1.078E-03
8079.200	-497.456	3577.403	-1231102.783	-6.258E-05	1.130E-03
8079.400	2.324	3610.476	-1231102.295	-7.595E-05	1.074E-03
8079.800	2.421	3610.915	-1231101.318	-7.656E-05	1.017E-03
8080.600	2.577	3611.420	-1231099.365	-7.352E-05	1.128E-03
8081.600	2.553	3611.916	-1231096.924	-8.324E-05	1.111E-03
8082.600	2.582	3612.360	-1231094.482	-9.053E-05	1.100E-03
8083.600	2.591	3612.675	-1231091.919	-9.357E-05	1.077E-03
8084.600	2.796	3613.025	-1231089.233	-6.501E-05	1.050E-03
8085.600	2.752	3613.312	-1231086.670	-6.137E-05	1.023E-03
8086.600	2.703	3613.579	-1231084.106	-7.656E-05	1.046E-03
8087.600	2.655	3613.782	-1231081.665	-6.684E-05	1.075E-03
8088.600	2.713	3613.986	-1231078.857	-6.319E-05	9.995E-04
8089.600	2.567	3614.216	-1231076.294	-7.473E-05	1.055E-03
8090.600	2.601	3614.410	-1231073.853	-8.385E-05	1.024E-03
8091.600	2.480	3614.585	-1231071.411	-5.711E-05	1.145E-03
8092.600	2.625	3614.742	-1231068.970	-6.623E-05	1.049E-03
8093.600	2.664	3614.923	-1231066.528	-7.291E-05	1.046E-03
8094.600	2.655	3615.020	-1231064.087	-7.716E-05	1.090E-03
8095.600	2.815	3615.188	-1231061.523	-8.446E-05	1.111E-03
8096.600	2.562	3615.332	-1231059.082	-7.170E-05	1.103E-03
8097.600	2.689	3615.439	-1231056.641	-8.203E-05	1.085E-03
8098.600	2.645	3615.524	-1231054.199	-7.170E-05	1.072E-03
8099.600	2.557	3615.643	-1231051.636	-9.114E-05	1.054E-03
8100.600	2.601	3615.767	-1231049.072	-8.628E-05	1.042E-03
8101.600	2.679	3615.850	-1231046.631	-7.656E-05	1.083E-03
8102.600	2.557	3615.932	-1231044.189	-7.716E-05	1.061E-03
8103.600	2.689	3616.015	-1231041.748	-7.170E-05	1.147E-03
8104.600	2.528	3616.102	-1231039.307	-7.534E-05	1.143E-03
8105.600	2.523	3616.179	-1231036.865	-7.534E-05	9.922E-04
8106.600	2.640	3616.261	-1231034.424	-9.479E-05	1.029E-03
8107.600	2.577	3616.318	-1231031.860	-6.380E-05	1.062E-03
8108.600	2.640	3616.390	-1231029.419	-8.020E-05	1.043E-03
8109.600	2.611	3616.465	-1231026.978	-8.446E-05	1.029E-03
8110.600	2.484	3616.542	-1231024.536	-9.175E-05	1.130E-03
8111.600	2.621	3616.611	-1231022.095	-8.385E-05	1.003E-03
8112.600	2.567	3616.657	-1231019.531	-7.960E-05	1.102E-03
8113.600	2.659	3616.716	-1231017.090	-8.932E-05	1.012E-03
8114.600	2.557	3616.745	-1231014.648	-8.020E-05	1.062E-03
8115.600	2.630	3616.802	-1231012.207	-7.109E-05	1.072E-03
8116.600	2.625	3616.852	-1231009.766	-7.291E-05	9.807E-04
8117.600	2.518	3616.927	-1231007.324	-7.230E-05	1.063E-03
8118.600	2.528	3616.922	-1231004.883	-7.109E-05	9.065E-04
8119.600	2.412	3616.956	-1231002.441	-8.142E-05	9.357E-04
8120.600	2.319	3616.980	-1231000.000	-6.805E-05	1.012E-03
8121.600	2.412	3617.008	-1230997.559	-7.899E-05	8.786E-04
8122.600	2.509	3617.104	-1230995.117	-7.170E-05	1.131E-03
8123.600	2.611	3617.155	-1230992.676	-7.716E-05	1.031E-03
8124.600	2.548	3617.154	-1230990.234	-7.960E-05	1.077E-03
8125.600	2.630	3617.216	-1230987.793	-7.595E-05	1.074E-03
8126.600	2.470	3617.210	-1230985.352	-5.408E-05	1.069E-03
8127.600	2.689	3617.295	-1230982.788	-7.413E-05	1.106E-03
8128.600	2.815	3617.312	-1230980.225	-8.203E-05	1.178E-03
8129.600	2.766	3617.352	-1230977.539	-7.656E-05	1.138E-03
8130.600	2.694	3617.356	-1230974.976	-7.960E-05	1.055E-03
8131.600	2.553	3617.409	-1230972.290	-6.805E-05	9.643E-04
8132.600	2.373	3617.426	-1230969.849	-9.175E-05	1.060E-03
8133.600	2.557	3617.435	-1230967.407	-7.109E-05	1.107E-03
8134.600	2.732	3617.504	-1230964.966	-8.385E-05	1.227E-03
8135.600	2.708	3617.496	-1230962.402	-7.777E-05	1.142E-03
8136.600	2.684	3617.516	-1230959.839	-6.744E-05	1.156E-03
8137.600	2.674	3617.543	-1230957.397	-7.534E-05	1.184E-03
8138.600	2.635	3617.540	-1230954.956	-8.506E-05	1.156E-03
8139.600	2.635	3617.628	-1230952.515	-7.230E-05	1.050E-03
8140.600	2.669	3617.630	-1230950.073	-8.142E-05	1.004E-03
8141.600	2.650	3617.647	-1230947.632	-9.235E-05	1.082E-03
8142.600	2.742	3617.673	-1230945.190	-8.203E-05	1.023E-03
8143.600	2.771	3617.676	-1230942.627	-7.048E-05	1.004E-03
8144.600	2.494	3617.687	-1230940.186	-7.048E-05	1.019E-03
8145.600	2.703	3617.707	-1230937.744	-6.684E-05	1.045E-03
8146.600	2.557	3617.755	-1230935.303	-7.656E-05	1.088E-03
8147.600	2.557	3617.782	-1230932.861	-7.595E-05	9.880E-04
8148.600	2.684	3617.752	-1230930.420	-7.656E-05	1.015E-03
8149.600	2.747	3617.805	-1230927.856	-6.501E-05	1.061E-03
8150.600	2.757	3617.748	-1230925.293	-7.473E-05	9.649E-04
8151.600	2.606	3617.810	-1230922.729	-8.142E-05	1.165E-03
8152.600	2.664	3617.831	-1230920.166	-6.927E-05	1.024E-03
8153.600	2.728	3617.826	-1230917.725	-7.534E-05	1.087E-03
8154.600	2.674	3617.867	-1230914.917	-7.473E-05	1.133E-03
8155.600	2.655	3617.877	-1230912.476	-8.263E-05	1.040E-03
8156.600	2.533	3617.881	-1230909.912	-6.441E-05	1.098E-03
8157.600	2.591	3617.887	-1230907.471	-7.230E-05	1.186E-03
8158.600	2.640	3617.939	-1230905.029	-6.623E-05	1.123E-03
8159.600	2.621	3617.948	-1230902.588	-6.380E-05	1.152E-03
8160.600	2.557	3617.914	-1230900.146	-6.380E-05	1.045E-03
8161.600	2.640	3618.000	-1230897.705	-7.109E-05	1.136E-03
8162.600	2.737	3617.998	-1230895.142	-7.534E-05	1.189E-03
8163.600	2.728	3618.001	-1230892.578	-7.838E-05	9.922E-04
8164.600	2.625	3618.025	-1230890.015	-6.623E-05	1.096E-03
8165.600	2.650	3618.060	-1230887.573	-7.230E-05	1.103E-03
8166.600	2.591	3618.019	-1230885.132	-6.623E-05	1.079E-03
8167.600	2.625	3618.051	-1230882.568	-6.197E-05	1.080E-03
8168.600	2.694	3618.074	-1230880.127	-7.170E-05	9.703E-04
8169.600	2.625	3618.080	-1230877.686	-9.539E-05	9.624E-04
8170.600	2.577	3618.096	-1230875.244	-8.810E-05	9.995E-04
8171.600	2.664	3618.078	-1230872.803	-7.352E-05	1.073E-03
8172.600	2.830	3618.097	-1230869.995	-6.380E-05	1.003E-03
8173.600	2.791	3618.133	-1230867.310	-6.987E-05	9.740E-04
8174.600	2.557	3618.113	-1230864.868	-8.142E-05	1.066E-03
8175.600	2.878	3618.160	-1230862.183	-4.618E-05	9.825E-04
8176.600	2.679	3618.152	-1230859.497	-6.197E-05	1.070E-03
8177.600	2.757	3618.161	-1230856.934	-7.352E-05	1.109E-03
8178.600	2.757	3618.139	-1230854.370	-8.749E-05	1.038E-03
8179.600	2.703	3618.218	-1230851.807	-7.899E-05	1.097E-03
8180.600	2.825	3618.192	-1230849.121	-9.479E-05	1.082E-03
8181.600	2.766	3618.206	-1230846.191	-8.020E-05	1.123E-03
8182.600	2.732	3618.176	-1230843.506	-7.534E-05	1.077E-03
8183.600	2.640	3618.215	-1230841.064	-5.894E-05	1.041E-03
8184.600	2.694	3618.235	-1230838.623	-8.203E-05	1.075E-03
8185.600	2.630	3618.228	-1230836.060	-7.716E-05	1.173E-03
8186.600	2.640	3618.243	-1230833.496	-7.899E-05	1.031E-03
8187.600	2.572	3618.238	-1230831.055	-6.562E-05	1.128E-03
8188.600	2.475	3618.255	-1230828.613	-6.258E-05	1.110E-03
8189.600	2.679	3618.259	-1230826.050	-8.203E-05	1.089E-03
8190.600	2.635	3618.317	-1230823.608	-6.015E-05	1.061E-03
8191.600	2.567	3618.265	-1230821.167	-9.053E-05	1.176E-03
8192.600	2.455	3618.248	-1230818.726	-9.053E-05	1.034E-03
8193.600	2.621	3618.306	-1230816.284	-7.960E-05	9.746E-04
8194.600	2.557	3618.309	-1230813.843	-6.927E-05	1.157E-03
8195.600	2.528	3618.283	-1230811.401	-8.203E-05	9.831E-04
8196.600	2.616	3618.328	-1230808.960	-6.319E-05	1.116E-03
8197.600	2.655	3618.339	-1230806.519	-7.899E-05	1.007E-03
8198.600	2.518	3618.324	-1230804.077	-8.932E-05	1.058E-03
8199.200	2.640	3618.353	-1230802.612	-8.385E-05	1.140E-03
8199.400	1251.121	3701.057	-1230552.368	-8.992E-05	9.965E-04
8199.800	1251.768	3702.142	-1230051.636	-6.623E-05	1.104E-03
8200.400	1252.103	3703.377	-1229300.537	-8.567E-05	1.078E-03
8201.200	1252.147	3704.658	-1228298.706	-7.109E-05	1.038E-03
8202.000	1252.220	3705.791	-1227296.753	-8.081E-05	1.001E-03
8203.000	1252.147	3707.016	-1226044.556	-7.352E-05	1.076E-03
8204.000	1252.201	3708.135	-1224792.236	-8.203E-05	1.094E-03
8205.000	1252.244	3709.159	-1223539.795	-7.656E-05	1.109E-03
8206.000	1252.079	3710.113	-1222287.476	-8.142E-05	1.140E-03
8207.000	1252.366	3710.995	-1221035.034	-7.960E-05	1.065E-03
8208.000	1252.254	3711.826	-1219782.837	-8.992E-05	1.003E-03
8209.000	1252.507	3712.614	-1218530.518	-8.689E-05	9.965E-04
8210.000	1252.162	3713.377	-1217278.076	-6.987E-05	1.120E-03
8211.000	1252.405	3714.051	-1216025.635	-9.418E-05	1.062E-03
8212.000	1252.317	3714.763	-1214773.193	-8.446E-05	1.097E-03
8213.000	1252.317	3715.422	-1213520.752	-8.203E-05	1.028E-03
8214.000	1252.512	3716.061	-1212268.311	-6.258E-05	1.130E-03
8215.000	1252.439	3716.649	-1211015.991	-8.203E-05	1.054E-03
8216.000	1252.390	3717.226	-1209763.550	-7.777E-05	1.007E-03
8217.000	1252.293	3717.762	-1208511.108	-7.960E-05	1.103E-03
8218.000	1252.298	3718.296	-1207258.667	-7.838E-05	1.120E-03
8219.000	1252.347	3718.801	-1206006.226	-7.777E-05	1.132E-03
8220.000	1252.565	3719.307	-1204753.784	-7.413E-05	1.027E-03
8220.800	1252.604	3719.647	-1203751.831	-6.927E-05	1.098E-03
8221.000	3.753	3637.341	-1203751.099	-8.446E-05	1.014E-03
8221.400	2.859	3636.414	-1203749.878	-6.441E-05	1.068E-03
8222.200	2.844	3635.277	-1203747.437	-6.866E-05	1.054E-03
8223.200	2.903	3634.202	-1203744.751	-7.899E-05	1.055E-03
8224.200	2.616	3633.321	-1203742.188	-6.684E-05	1.167E-03
8225.200	2.815	3632.647	-1203739.502	-7.352E-05	1.159E-03
8226.200	2.533	3632.025	-1203736.938	-7.777E-05	1.163E-03
8227.200	2.703	3631.486	-1203734.497	-7.109E-05	1.017E-03
8228.200	2.611	3630.973	-1203732.056	-8.992E-05	1.111E-03
8229.200	2.762	3630.492	-1203729.492	-5.833E-05	1.099E-03
8230.200	2.689	3630.103	-1203726.929	-7.413E-05	1.052E-03
8231.200	2.606	3629.719	-1203724.487	-8.020E-05	1.001E-03
8232.200	2.708	3629.377	-1203722.046	-8.263E-05	1.056E-03
8233.200	2.655	3629.007	-1203719.604	-7.899E-05	9.983E-04
8234.200	2.737	3628.718	-1203717.163	-7.899E-05	1.125E-03
8235.200	2.621	3628.426	-1203714.600	-7.960E-05	1.065E-03
8236.200	2.596	3628.198	-1203712.158	-7.716E-05	1.013E-03
8237.200	2.446	3627.971	-1203709.595	-7.230E-05	9.351E-04
8238.200	2.684	3627.726	-1203707.153	-7.170E-05	1.123E-03
8239.200	2.416	3627.519	-1203704.712	-8.749E-05	1.080E-03
8240.200	2.708	3627.313	-1203702.271	-5.711E-05	1.014E-03
8241.200	2.606	3627.118	-1203699.829	-7.656E-05	1.095E-03
8242.200	2.591	3626.971	-1203697.388	-6.380E-05	1.013E-03
8243.200	2.421	3626.797	-1203694.946	-6.987E-05	9.187E-04
8244.200	2.611	3626.627	-1203692.505	-6.866E-05	1.174E-03
8245.200	2.377	3626.479	-1203690.063	-7.473E-05	1.158E-03
8246.200	2.606	3626.368	-1203687.622	-7.534E-05	1.044E-03
8247.200	2.499	3626.248	-1203685.181	-8.324E-05	1.138E-03
8248.200	2.621	3626.090	-1203682.739	-8.749E-05	1.137E-03
8249.200	2.713	3625.993	-1203680.298	-8.446E-05	1.068E-03
8250.200	2.679	3625.906	-1203677.734	-7.473E-05	1.105E-03
8251.200	2.591	3625.767	-1203675.293	-8.203E-05	1.111E-03
8252.200	2.567	3625.654	-1203672.852	-7.170E-05	9.940E-04
8253.200	2.601	3625.591	-1203670.410	-9.053E-05	1.006E-03
8254.200	2.694	3625.506	-1203667.969	-8.932E-05	1.118E-03
8255.200	2.548	3625.385	-1203665.405	-9.600E-05	1.025E-03
8256.200	2.621	3625.313	-1203662.964	-6.137E-05	1.040E-03
8257.200	2.514	3625.262	-1203660.522	-8.020E-05	1.052E-03
8258.200	2.596	3625.113	-1203657.959	-7.048E-05	1.031E-03
8259.200	2.587	3625.107	-1203655.518	-6.380E-05	1.052E-03
8260.200	2.548	3625.058	-1203653.076	-9.114E-05	1.065E-03
8261.200	2.557	3624.964	-1203650.635	-6.987E-05	1.008E-03
8262.200	2.548	3624.897	-1203648.071	-8.992E-05	9.788E-04
8263.200	2.689	3624.859	-1203645.630	-5.833E-05	1.124E-03
8264.200	2.499	3624.778	-1203643.188	-7.656E-05	1.032E-03
8265.200	2.446	3624.699	-1203640.747	-6.623E-05	1.038E-03
8266.200	2.567	3624.689	-1203638.184	-7.291E-05	1.168E-03
8267.200	2.854	3624.654	-1203635.620	-6.501E-05	1.068E-03
8268.200	2.553	3624.576	-1203633.179	-7.838E-05	9.843E-04
8269.200	2.723	3624.538	-1203630.737	-9.114E-05	1.092E-03
8270.200	2.742	3624.535	-1203628.174	-7.109E-05	1.068E-03
8271.200	2.587	3624.500	-1203625.610	-7.170E-05	1.113E-03
8272.200	2.669	3624.459	-1203623.047	-6.015E-05	1.105E-03
8273.200	2.611	3624.377	-1203620.605	-6.866E-05	1.089E-03
8274.200	2.669	3624.334	-1203618.164	-8.203E-05	1.106E-03
8275.200	2.630	3624.324	-1203615.723	-6.927E-05	1.071E-03
8276.200	2.625	3624.290	-1203613.159	-7.838E-05	1.033E-03
8277.200	2.742	3624.225	-1203610.596	-6.623E-05	1.130E-03
8278.200	2.635	3624.241	-1203608.032	-8.446E-05	1.097E-03
8279.200	2.616	3624.206	-1203605.347	-7.291E-05	1.109E-03
8280.200	2.514	3624.147	-1203602.783	-6.987E-05	1.075E-03
8281.200	2.659	3624.154	-1203600.342	-6.380E-05	1.059E-03
8282.200	2.572	3624.099	-1203597.778	-7.048E-05	1.046E-03
8283.200	2.679	3624.025	-1203595.215	-7.170E-05	1.057E-03
8284.200	2.645	3624.097	-1203592.651	-8.203E-05	1.058E-03
8285.200	2.548	3624.055	-1203590.088	-6.987E-05	1.174E-03
8286.200	2.587	3624.029	-1203587.646	-7.109E-05	1.083E-03
8287.200	2.611	3623.977	-1203585.205	-7.048E-05	1.096E-03
8288.200	2.431	3623.955	-1203582.764	-6.501E-05	9.934E-04
8289.200	2.538	3623.936	-1203580.322	-9.418E-05	9.636E-04
8290.200	2.625	3623.928	-1203577.881	-8.689E-05	1.139E-03
8291.200	2.572	3623.901	-1203575.439	-8.203E-05	1.111E-03
8292.200	2.625	3623.891	-1203572.998	-6.744E-05	9.406E-04
8293.200	2.625	3623.896	-1203570.557	-7.899E-05	1.004E-03
8294.200	2.591	3623.852	-1203567.993	-8.203E-05	1.092E-03
8295.200	2.728	3623.822	-1203565.308	-7.109E-05	1.012E-03
8296.200	2.596	3623.794	-1203562.744	-7.777E-05	1.035E-03
8297.200	2.723	3623.760	-1203560.303	-7.595E-05	1.108E-03
8298.200	2.582	3623.787	-1203557.861	-5.894E-05	1.139E-03
8299.200	2.630	3623.775	-1203555.420	-6.927E-05	1.013E-03
8300.200	2.504	3623.723	-1203552.979	-9.600E-05	1.164E-03
8301.200	2.625	3623.757	-1203550.537	-7.534E-05	1.057E-03
8302.200	2.621	3623.730	-1203547.974	-7.899E-05	1.031E-03
8303.200	2.611	3623.718	-1203545.410	-8.385E-05	1.115E-03
8304.200	2.805	3623.720	-1203542.725	-8.871E-05	1.051E-03
8305.200	3.000	3623.707	-1203539.795	-6.258E-05	9.351E-04
8306.200	2.611	3623.701	-1203537.231	-8.628E-05	1.121E-03
8307.200	2.800	3623.674	-1203534.424	-7.473E-05	1.063E-03
8308.200	2.684	3623.676	-1203531.860	-6.684E-05	1.111E-03
8309.200	2.810	3623.650	-1203529.175	-7.899E-05	1.020E-03
8310.200	2.567	3623.652	-1203526.611	-7.473E-05	1.059E-03
8311.200	2.708	3623.617	-1203524.170	-8.203E-05	1.111E-03
8312.200	2.786	3623.625	-1203521.362	-6.623E-05	9.904E-04
8313.200	2.625	3623.617	-1203518.921	-7.291E-05	1.060E-03
8314.200	2.684	3623.583	-1203516.357	-5.286E-05	1.075E-03
8315.200	2.659	3623.605	-1203513.672	-8.992E-05	1.089E-03
8316.200	2.800	3623.545	-1203511.108	-7.291E-05	1.044E-03
8317.200	2.713	3623.604	-1203508.545	-8.385E-05	1.020E-03
8318.200	2.718	3623.583	-1203505.859	-6.744E-05	1.077E-03
8319.200	2.771	3623.568	-1203503.052	-7.960E-05	9.910E-04
8320.200	2.839	3623.577	-1203500.366	-7.777E-05	1.092E-03
8321.200	2.679	3623.556	-1203497.803	-7.473E-05	1.027E-03
8322.200	2.684	3623.518	-1203495.117	-6.684E-05	1.120E-03
8323.200	2.557	3623.542	-1203492.676	-6.866E-05	1.113E-03
8324.200	2.606	3623.485	-1203490.112	-9.296E-05	1.100E-03
8325.200	2.723	3623.514	-1203487.671	-7.960E-05	1.083E-03
8326.200	2.591	3623.494	-1203485.107	-8.567E-05	1.151E-03
8327.200	2.742	3623.503	-1203482.666	-8.749E-05	1.030E-03
8328.200	2.737	3623.498	-1203480.225	-8.324E-05	1.105E-03
8329.200	2.781	3623.511	-1203477.295	-7.777E-05	1.094E-03
8330.200	2.742	3623.508	-1203474.487	-5.894E-05	9.551E-04
8331.200	2.903	3623.484	-1203471.680	-7.656E-05	1.015E-03
8332.200	2.679	3623.471	-1203468.994	-7.230E-05	1.023E-03
8333.200	2.640	3623.416	-1203466.553	-7.777E-05	1.116E-03
8334.200	2.728	3623.465	-1203463.867	-8.203E-05	1.137E-03
8335.200	2.621	3623.473	-1203461.304	-8.081E-05	1.023E-03
8336.200	2.771	3623.430	-1203458.740	-7.960E-05	1.021E-03
8337.200	2.689	3623.462	-1203456.055	-6.076E-05	1.096E-03
8338.200	2.596	3623.430	-1203453.369	-6.805E-05	1.050E-03
8339.200	2.864	3623.470	-1203450.562	-7.352E-05	1.088E-03
8340.200	2.708	3623.439	-1203448.120	-7.777E-05	9.509E-04
8340.800	2.616	3623.423	-1203446.533	-7.352E-05	1.002E-03
8341.000	-1246.075	3540.805	-1203695.801	-6.744E-05	1.074E-03
8341.400	-1246.763	3539.672	-1204194.458	-6.684E-05	1.034E-03
8342.000	-1246.797	3538.461	-1204942.627	-6.623E-05	1.055E-03
8342.800	-1246.940	3537.166	-1205940.186	-7.656E-05	9.946E-04
8343.600	-1247.169	3536.009	-1206937.744	-6.258E-05	1.152E-03
8344.400	-1247.232	3534.973	-1207935.303	-6.684E-05	1.052E-03
8345.400	-1247.222	3533.799	-1209182.495	-6.380E-05	1.049E-03
8346.400	-1247.261	3532.715	-1210429.565	-7.413E-05	1.159E-03
8347.400	-1247.336	3531.738	-1211677.002	-7.170E-05	1.099E-03
8348.400	-1247.198	3530.802	-1212924.316	-7.656E-05	1.066E-03
8349.400	-1247.271	3529.863	-1214171.753	-7.716E-05	1.022E-03
8350.400	-1247.271	3529.071	-1215419.067	-6.319E-05	1.236E-03
8351.400	-1247.322	3528.289	-1216666.138	-8.385E-05	1.010E-03
8352.400	-1247.234	3527.537	-1217913.452	-7.838E-05	1.054E-03
8353.400	-1247.310	3526.869	-1219160.889	-7.595E-05	1.144E-03
8354.400	-1247.290	3526.149	-1220408.081	-8.385E-05	1.066E-03
8355.400	-1247.079	3525.547	-1221655.273	-7.838E-05	9.843E-04
8356.400	-1247.157	3524.949	-1222902.222	-8.142E-05	1.018E-03
8357.400	-1247.346	3524.319	-1224149.414	-6.987E-05	9.594E-04
8358.400	-1247.105	3523.730	-1225396.362	-5.104E-05	1.013E-03
8359.400	-1247.317	3523.183	-1226643.799	-6.137E-05	1.096E-03
8360.400	-1247.273	3522.625	-1227891.235	-6.562E-05	1.083E-03
8361.400	-1247.220	3522.112	-1229138.428	-6.805E-05	1.055E-03
8362.400	-1247.307	3521.607	-1230385.620	-5.651E-05	1.077E-03
8362.600	1.755	3604.402	-1230385.254	-5.468E-05	9.855E-04
8363.000	2.261	3605.312	-1230384.277	-6.623E-05	1.125E-03
8363.800	2.436	3606.484	-1230382.324	-7.230E-05	1.173E-03
8364.800	2.587	3607.560	-1230379.883	-9.539E-05	1.125E-03
8365.800	2.674	3608.400	-1230377.319	-8.020E-05	1.074E-03
8366.800	2.431	3609.157	-1230374.878	-6.501E-05	1.103E-03
8367.800	2.635	3609.764	-1230372.437	-5.529E-05	1.076E-03
8368.800	2.494	3610.341	-1230369.995	-9.175E-05	1.130E-03
8369.800	2.484	3610.886	-1230367.554	-7.352E-05	1.068E-03
8370.800	2.548	3611.322	-1230365.112	-6.562E-05	1.131E-03
8371.800	2.635	3611.745	-1230362.671	-7.716E-05	9.460E-04
8372.800	2.645	3612.111	-1230360.229	-5.408E-05	1.086E-03
8373.800	2.455	3612.457	-1230357.788	-8.689E-05	9.922E-04
8374.800	2.591	3612.776	-1230355.347	-7.777E-05	1.111E-03
8375.800	2.689	3613.076	-1230352.905	-7.716E-05	1.000E-03
8376.800	2.591	3613.366	-1230350.464	-5.529E-05	1.078E-03
8377.800	2.766	3613.633	-1230347.900	-8.628E-05	1.108E-03
8378.800	2.674	3613.852	-1230345.337	-6.015E-05	1.048E-03
8379.800	2.674	3614.078	-1230342.773	-8.810E-05	1.051E-03
8380.800	2.596	3614.296	-1230340.210	-6.197E-05	9.612E-04
8381.800	2.703	3614.502	-1230337.769	-7.230E-05	1.184E-03
8382.800	2.630	3614.674	-1230335.327	-8.081E-05	1.083E-03
8383.800	2.713	3614.878	-1230332.886	-7.534E-05	9.758E-04
8384.800	2.509	3615.024	-1230330.444	-8.263E-05	1.038E-03
8385.800	2.655	3615.172	-1230328.003	-7.595E-05	1.077E-03
8386.800	2.650	3615.276	-1230325.562	-7.534E-05	1.163E-03
8387.800	2.577	3615.461	-1230323.120	-7.230E-05	1.077E-03
8388.800	2.655	3615.601	-1230320.679	-8.871E-05	9.946E-04
8389.800	2.796	3615.725	-1230318.115	-7.595E-05	9.892E-04
8390.800	2.752	3615.851	-1230315.552	-7.473E-05	1.105E-03
8391.800	2.572	3615.946	-1230313.110	-8.324E-05	1.032E-03
8392.800	2.625	3615.995	-1230310.669	-9.296E-05	1.085E-03
8393.800	2.407	3616.130	-1230308.228	-8.689E-05	1.038E-03
8394.800	2.441	3616.245	-1230305.786	-7.595E-05	1.062E-03
8395.800	2.718	3616.354	-1230303.345	-8.992E-05	1.022E-03
8396.800	2.611	3616.432	-1230300.903	-9.479E-05	1.079E-03
8397.800	2.377	3616.502	-1230298.462	-5.468E-05	1.045E-03
8398.800	2.436	3616.562	-1230296.021	-5.772E-05	1.051E-03
8399.800	2.713	3616.650	-1230293.579	-7.838E-05	1.080E-03
8400.800	2.635	3616.723	-1230291.138	-6.380E-05	1.069E-03
8401.800	2.553	3616.826	-1230288.696	-7.413E-05	1.041E-03
8402.800	2.596	3616.897	-1230286.255	-7.716E-05	1.039E-03
8403.800	2.441	3616.923	-1230283.813	-6.501E-05	9.952E-04
8404.800	2.494	3616.992	-1230281.372	-7.777E-05	1.074E-03
8405.800	2.591	3617.043	-1230278.931	-8.081E-05	1.083E-03
8406.800	2.757	3617.107	-1230276.245	-7.352E-05	1.127E-03
8407.800	2.689	3617.182	-1230273.804	-7.656E-05	1.058E-03
8408.800	2.635	3617.208	-1230271.362	-6.927E-05	9.126E-04
8409.800	2.572	3617.288	-1230268.921	-7.230E-05	1.071E-03
8410.800	2.650	3617.313	-1230266.479	-7.291E-05	1.083E-03
8411.800	2.606	3617.337	-1230264.038	-6.927E-05	1.085E-03
8412.800	2.630	3617.336	-1230261.597	-6.866E-05	1.097E-03
8413.800	2.659	3617.482	-1230259.155	-7.534E-05	1.018E-03
8414.800	2.553	3617.478	-1230256.714	-8.446E-05	1.043E-03
8415.800	2.708	3617.517	-1230254.272	-7.413E-05	1.039E-03
8416.800	2.611	3617.515	-1230251.831	-6.684E-05	1.099E-03
8417.800	2.421	3617.608	-1230249.390	-7.048E-05	1.179E-03
8418.800	2.679	3617.638	-1230246.948	-6.562E-05	1.113E-03
8419.800	2.494	3617.662	-1230244.507	-5.833E-05	1.035E-03
8420.800	2.694	3617.659	-1230242.065	-6.562E-05	1.083E-03
8421.800	2.635	3617.743	-1230239.624	-8.749E-05	1.133E-03
8422.800	2.509	3617.761	-1230237.183	-8.081E-05	1.044E-03
8423.800	2.684	3617.783	-1230234.741	-8.506E-05	1.131E-03
8424.800	2.625	3617.841	-1230232.300	-6.927E-05	1.105E-03
8425.800	2.591	3617.832	-1230229.858	-7.656E-05	1.020E-03
8426.800	2.514	3617.815	-1230227.295	-6.684E-05	1.080E-03
8427.800	2.582	3617.885	-1230224.854	-8.081E-05	1.137E-03
8428.800	2.664	3617.900	-1230222.412	-6.380E-05	1.034E-03
8429.800	2.509	3617.936	-1230219.971	-8.810E-05	1.112E-03
8430.800	2.587	3617.989	-1230217.529	-8.081E-05	1.120E-03
8431.800	2.587	3617.926	-1230215.088	-7.230E-05	1.054E-03
8432.800	2.431	3618.015	-1230212.646	-6.987E-05	1.108E-03
8433.800	2.630	3618.014	-1230210.205	-8.203E-05	1.133E-03
8434.800	2.392	3618.008	-1230207.642	-8.567E-05	1.066E-03
8435.800	2.611	3618.104	-1230205.200	-6.805E-05	9.564E-04
8436.800	2.489	3618.090	-1230202.759	-7.413E-05	1.174E-03
8437.800	2.533	3618.106	-1230200.317	-6.805E-05	1.088E-03
8438.800	2.518	3618.126	-1230197.876	-7.838E-05	1.148E-03
8439.800	2.533	3618.176	-1230195.435	-6.501E-05	1.178E-03
8440.800	2.713	3618.208	-1230192.993	-6.987E-05	1.159E-03
8441.800	2.708	3618.162	-1230190.552	-6.987E-05	1.074E-03
8442.800	2.752	3618.209	-1230187.866	-6.441E-05	1.006E-03
8443.800	2.708	3618.218	-1230185.425	-7.109E-05	1.143E-03
8444.800	2.771	3618.233	-1230182.617	-6.744E-05	1.069E-03
8445.800	2.591	3618.286	-1230180.176	-6.927E-05	1.031E-03
8446.800	2.669	3618.285	-1230177.612	-7.899E-05	1.186E-03
8447.800	2.669	3618.305	-1230175.049	-6.684E-05	9.606E-04
8448.800	2.718	3618.350	-1230172.241	-8.142E-05	1.088E-03
8449.800	2.839	3618.305	-1230169.189	-8.081E-05	1.009E-03
8450.800	2.713	3618.345	-1230166.504	-6.927E-05	1.020E-03
8451.800	2.582	3618.361	-1230163.818	-5.954E-05	1.002E-03
8452.800	2.849	3618.379	-1230161.011	-7.899E-05	1.055E-03
8453.800	2.708	3618.399	-1230158.447	-6.015E-05	1.008E-03
8454.800	2.694	3618.408	-1230155.884	-8.081E-05	1.020E-03
8455.800	2.718	3618.381	-1230153.320	-5.043E-05	9.235E-04
8456.800	2.771	3618.381	-1230150.757	-6.987E-05	1.021E-03
8457.800	2.703	3618.438	-1230148.193	-8.203E-05	9.892E-04
8458.800	2.601	3618.448	-1230145.630	-7.960E-05	1.119E-03
8459.800	2.601	3618.436	-1230143.188	-7.960E-05	1.108E-03
8460.800	2.635	3618.462	-1230140.381	-7.291E-05	1.077E-03
8461.800	2.655	3618.453	-1230137.939	-8.567E-05	1.051E-03
8462.800	2.553	3618.473	-1230135.498	-9.296E-05	9.782E-04
8463.800	2.591	3618.503	-1230133.057	-7.777E-05	1.156E-03
8464.800	2.504	3618.524	-1230130.493	-6.258E-05	1.106E-03
8465.800	2.601	3618.520	-1230128.052	-8.324E-05	1.003E-03
8466.800	2.859	3618.487	-1230125.244	-6.501E-05	1.130E-03
8467.800	2.805	3618.531	-1230122.681	-8.142E-05	1.098E-03
8468.800	2.606	3618.555	-1230120.239	-7.473E-05	1.116E-03
8469.800	2.655	3618.543	-1230117.554	-7.595E-05	1.041E-03
8470.800	2.635	3618.580	-1230115.112	-8.385E-05	9.837E-04
8471.800	2.674	3618.587	-1230112.427	-6.380E-05	9.959E-04
8472.800	2.674	3618.588	-1230109.985	-6.684E-05	1.040E-03
8473.800	2.664	3618.609	-1230107.544	-6.319E-05	1.067E-03
8474.800	2.679	3618.614	-1230105.103	-8.385E-05	1.176E-03
8475.800	2.596	3618.621	-1230102.539	-7.170E-05	1.010E-03
8476.800	2.606	3618.621	-1230100.098	-9.053E-05	9.424E-04
8477.800	2.596	3618.629	-1230097.656	-6.501E-05	1.077E-03
8478.800	2.757	3618.664	-1230094.971	-6.562E-05	1.037E-03
8479.800	2.625	3618.614	-1230092.407	-8.020E-05	9.679E-04
8480.800	2.839	3618.678	-1230089.722	-8.020E-05	9.861E-04
8481.800	2.805	3618.672	-1230086.914	-5.651E-05	1.066E-03
8482.400	2.684	3618.678	-1230085.205	-7.716E-05	1.102E-03
8482.600	2499.549	3783.582	-1229585.327	-7.352E-05	1.008E-03
8482.800	2500.901	3784.901	-1229085.205	-8.567E-05	1.024E-03
8483.200	2501.824	3786.687	-1228084.595	-7.230E-05	1.084E-03
8483.600	2501.931	3788.183	-1227083.862	-6.076E-05	1.177E-03
8484.000	2502.014	3789.510	-1226083.130	-8.081E-05	1.106E-03
8484.400	2502.204	3790.674	-1225082.275	-7.170E-05	1.120E-03
8484.800	2502.160	3791.816	-1224081.299	-8.992E-05	1.159E-03
8485.200	2502.116	3792.875	-1223080.566	-7.109E-05	1.122E-03
8485.600	2502.107	3793.891	-1222079.834	-7.352E-05	1.014E-03
8486.200	2502.272	3795.297	-1220578.369	-8.446E-05	1.092E-03
8486.800	2502.374	3796.590	-1219076.904	-6.744E-05	1.098E-03
8487.400	2502.408	3797.874	-1217575.439	-6.441E-05	9.965E-04
8488.000	2502.213	3799.091	-1216073.975	-6.987E-05	1.013E-03
8488.600	2502.296	3800.189	-1214572.510	-6.866E-05	1.063E-03
8489.200	2502.345	3801.300	-1213071.045	-7.777E-05	1.097E-03
8489.800	2502.379	3802.331	-1211569.580	-5.833E-05	1.066E-03
8490.600	2502.340	3803.648	-1209567.627	-6.927E-05	1.047E-03
8491.400	2502.316	3804.905	-1207565.674	-8.932E-05	1.147E-03
8492.200	2502.320	3806.059	-1205563.721	-8.081E-05	1.078E-03
8493.000	2502.204	3807.206	-1203561.768	-8.506E-05	1.182E-03
8493.200	2502.282	3807.474	-1203061.279	-5.772E-05	1.082E-03
8493.400	4.896	3643.429	-1203060.303	-7.109E-05	1.167E-03
8493.800	3.136	3641.773	-1203058.960	-6.927E-05	1.118E-03
8494.200	2.898	3640.716	-1203057.739	-6.866E-05	1.026E-03
8494.800	2.820	3639.547	-1203055.908	-6.623E-05	9.928E-04
8495.400	2.737	3638.541	-1203054.321	-6.805E-05	1.133E-03
8496.200	2.698	3637.449	-1203052.246	-7.291E-05	1.005E-03
8497.200	2.771	3636.275	-1203049.438	-6.076E-05	1.002E-03
8498.200	2.630	3635.345	-1203046.875	-9.053E-05	1.000E-03
8499.200	2.810	3634.510	-1203044.312	-6.744E-05	1.008E-03
8500.200	2.728	3633.753	-1203041.870	-6.562E-05	1.092E-03
8501.200	2.723	3633.103	-1203039.307	-7.352E-05	1.093E-03
8502.200	2.791	3632.494	-1203036.377	-8.385E-05	1.072E-03
8503.200	2.859	3631.980	-1203033.813	-5.954E-05	9.977E-04
8504.200	2.732	3631.462	-1203031.250	-6.562E-05	9.466E-04
8505.200	2.766	3631.009	-1203028.564	-7.595E-05	1.111E-03
8506.200	2.689	3630.622	-1203026.123	-5.772E-05	1.133E-03
8507.200	2.596	3630.231	-1203023.682	-7.230E-05	1.047E-03
8508.200	2.446	3629.872	-1203021.240	-6.501E-05	1.066E-03
8509.200	2.621	3629.523	-1203018.799	-6.380E-05	1.073E-03
8510.200	2.572	3629.214	-1203016.357	-7.230E-05	1.232E-03
8511.200	2.509	3628.950	-1203013.916	-5.894E-05	1.071E-03
8512.200	2.640	3628.676	-1203011.353	-7.716E-05	1.111E-03
8513.200	2.664	3628.437	-1203008.667	-7.413E-05	1.235E-03
8514.200	2.640	3628.242	-1203006.226	-6.076E-05	1.089E-03
8515.200	2.766	3628.015	-1203003.296	-7.352E-05	1.120E-03
8516.200	2.630	3627.777	-1203000.854	-6.441E-05	1.130E-03
8517.200	2.708	3627.575	-1202998.291	-5.833E-05	1.105E-03
8518.200	2.538	3627.426	-1202995.850	-8.203E-05	1.096E-03
8519.200	2.553	3627.268	-1202993.286	-6.805E-05	1.074E-03
8520.200	2.572	3627.080	-1202990.845	-6.684E-05	9.175E-04
8521.200	2.718	3626.919	-1202988.403	-5.954E-05	1.120E-03
8522.200	2.514	3626.807	-1202985.962	-6.987E-05	1.053E-03
8523.200	2.567	3626.637	-1202983.521	-7.595E-05	9.545E-04
8524.200	2.591	3626.540	-1202981.079	-8.628E-05	1.017E-03
8525.200	2.538	3626.412	-1202978.638	-6.319E-05	1.007E-03
8526.200	2.489	3626.285	-1202976.196	-9.479E-05	1.022E-03
8527.200	2.616	3626.163	-1202973.755	-7.413E-05	1.114E-03
8528.200	2.523	3626.094	-1202971.313	-8.203E-05	1.158E-03
8529.200	2.533	3626.000	-1202968.872	-7.960E-05	1.027E-03
8530.200	2.572	3625.883	-1202966.431	-8.689E-05	1.106E-03
8531.200	2.621	3625.802	-1202963.989	-6.987E-05	1.004E-03
8532.200	2.557	3625.702	-1202961.548	-5.468E-05	1.166E-03
8533.200	2.470	3625.643	-1202959.106	-5.590E-05	1.021E-03
8534.200	2.562	3625.564	-1202956.665	-6.623E-05	1.151E-03
8535.200	2.523	3625.474	-1202954.224	-6.866E-05	1.077E-03
8536.200	2.752	3625.424	-1202951.660	-7.534E-05	1.060E-03
8537.200	2.698	3625.320	-1202949.219	-6.380E-05	1.089E-03
8538.200	2.587	3625.259	-1202946.777	-7.595E-05	1.091E-03
8539.200	2.650	3625.215	-1202944.336	-5.468E-05	1.060E-03
8540.200	2.611	3625.160	-1202941.895	-8.810E-05	1.151E-03
8541.200	2.562	3625.077	-1202939.453	-7.777E-05	1.063E-03
8542.200	2.562	3625.061	-1202937.012	-8.324E-05	1.069E-03
8543.200	2.523	3625.017	-1202934.570	-7.473E-05	1.080E-03
8544.200	2.611	3624.950	-1202932.129	-7.170E-05	1.074E-03
8545.200	2.582	3624.898	-1202929.688	-6.258E-05	1.088E-03
8546.200	2.684	3624.868	-1202927.246	-5.529E-05	1.097E-03
8547.200	2.373	3624.795	-1202924.805	-6.744E-05	9.977E-04
8548.200	2.412	3624.797	-1202922.363	-8.081E-05	1.173E-03
8549.200	2.567	3624.750	-1202919.922	-5.286E-05	1.170E-03
8550.200	2.781	3624.710	-1202917.236	-6.805E-05	1.094E-03
8551.200	2.742	3624.665	-1202914.673	-6.015E-05	1.071E-03
8552.200	2.616	3624.636	-1202911.987	-7.352E-05	9.436E-04
8553.200	2.694	3624.651	-1202909.424	-5.590E-05	1.100E-03
8554.200	2.470	3624.598	-1202906.982	-8.203E-05	1.139E-03
8555.200	2.596	3624.524	-1202904.541	-8.020E-05	1.083E-03
8556.200	2.655	3624.512	-1202902.100	-8.263E-05	1.043E-03
8557.200	2.606	3624.493	-1202899.658	-6.987E-05	1.074E-03
8558.200	2.630	3624.426	-1202897.095	-6.927E-05	1.035E-03
8559.200	2.708	3624.413	-1202894.653	-8.446E-05	1.007E-03
8560.200	2.713	3624.433	-1202892.212	-6.076E-05	1.168E-03
8561.200	2.810	3624.368	-1202889.526	-6.684E-05	1.146E-03
8562.200	2.771	3624.395	-1202886.841	-8.567E-05	1.080E-03
8563.200	2.640	3624.369	-1202884.399	-6.501E-05	1.106E-03
8564.200	2.523	3624.321	-1202881.958	-6.623E-05	1.150E-03
8565.200	2.606	3624.283	-1202879.517	-6.866E-05	1.083E-03
8566.200	2.669	3624.262	-1202877.075	-7.413E-05	1.057E-03
8567.200	2.616	3624.268	-1202874.634	-7.352E-05	1.159E-03
8568.200	2.582	3624.218	-1202872.192	-6.623E-05	1.119E-03
8569.200	2.450	3624.218	-1202869.751	-7.656E-05	1.052E-03
8570.200	2.562	3624.179	-1202867.310	-7.777E-05	9.904E-04
8571.200	2.630	3624.194	-1202864.868	-7.291E-05	1.090E-03
8572.200	2.752	3624.175	-1202862.305	-5.590E-05	9.096E-04
8573.200	2.484	3624.150	-1202859.863	-8.081E-05	1.032E-03
8574.200	2.509	3624.132	-1202857.422	-7.413E-05	1.000E-03
8575.200	2.708	3624.156	-1202854.980	-9.357E-05	1.068E-03
8576.200	2.625	3624.135	-1202852.417	-8.203E-05	1.038E-03
8577.200	2.587	3624.117	-1202849.976	-6.927E-05	1.198E-03
8578.200	2.611	3624.089	-1202847.534	-6.987E-05	1.127E-03
8579.200	2.562	3624.065	-1202844.971	-6.866E-05	1.020E-03
8580.200	2.869	3624.039	-1202842.285	-7.473E-05	1.150E-03
8581.200	2.757	3624.056	-1202839.722	-8.263E-05	9.898E-04
8582.200	2.504	3624.032	-1202837.280	-7.656E-05	1.015E-03
8583.200	2.684	3624.011	-1202834.717	-8.324E-05	1.085E-03
8584.200	2.674	3624.026	-1202831.909	-7.595E-05	1.119E-03
8585.200	2.679	3624.024	-1202829.468	-6.927E-05	1.227E-03
8586.200	2.752	3624.010	-1202826.904	-6.137E-05	1.119E-03
8587.200	2.582	3623.988	-1202824.341	-7.473E-05	1.040E-03
8588.200	2.747	3623.960	-1202821.777	-7.473E-05	1.068E-03
8589.200	2.655	3623.959	-1202819.336	-8.628E-05	1.154E-03
8590.200	2.616	3623.961	-1202816.650	-8.689E-05	1.127E-03
8591.200	2.567	3623.939	-1202814.209	-8.263E-05	1.065E-03
8592.200	2.562	3623.920	-1202811.646	-6.501E-05	1.032E-03
8593.200	2.669	3623.908	-1202809.204	-5.894E-05	1.066E-03
8594.200	2.713	3623.909	-1202806.763	-6.562E-05	1.175E-03
8595.200	2.664	3623.882	-1202804.199	-5.711E-05	1.049E-03
8596.200	2.431	3623.862	-1202801.758	-6.258E-05	1.110E-03
8597.200	2.528	3623.891	-1202799.194	-6.684E-05	1.058E-03
8598.200	2.645	3623.862	-1202796.631	-6.684E-05	9.928E-04
8599.200	2.640	3623.863	-1202794.189	-6.197E-05	1.107E-03
8600.200	2.538	3623.868	-1202791.504	-6.987E-05	1.097E-03
8601.200	2.504	3623.847	-1202789.063	-9.053E-05	1.026E-03
8602.200	2.621	3623.848	-1202786.621	-7.352E-05	1.163E-03
8603.200	2.713	3623.810	-1202784.180	-6.319E-05	1.097E-03
8604.200	2.708	3623.847	-1202781.738	-8.142E-05	1.018E-03
8605.200	2.582	3623.848	-1202779.297	-4.618E-05	1.103E-03
8606.200	2.650	3623.863	-1202776.855	-8.810E-05	9.655E-04
8607.200	2.655	3623.823	-1202774.414	-8.020E-05	1.168E-03
8608.200	2.625	3623.829	-1202771.973	-8.810E-05	1.106E-03
8609.200	2.591	3623.817	-1202769.531	-7.109E-05	9.995E-04
8610.200	2.766	3623.795	-1202766.846	-7.960E-05	1.099E-03
8611.200	2.650	3623.825	-1202764.404	-6.744E-05	1.042E-03
8612.200	2.645	3623.781	-1202761.963	-6.015E-05	1.035E-03
8613.200	2.684	3623.763	-1202759.521	-6.319E-05	1.183E-03
8613.400	-2494.310	3459.145	-1203258.423	-5.590E-05	9.873E-04
8613.600	-2495.854	3457.790	-1203757.568	-6.258E-05	1.069E-03
8613.800	-2496.433	3456.757	-1204256.836	-6.501E-05	1.079E-03
8614.200	-2496.715	3455.101	-1205255.493	-5.529E-05	1.128E-03
8614.600	-2496.783	3453.645	-1206254.272	-5.347E-05	1.210E-03
8615.000	-2496.805	3452.281	-1207253.052	-6.562E-05	1.092E-03
8615.400	-2496.904	3451.032	-1208251.831	-5.711E-05	1.093E-03
8615.800	-2496.858	3449.866	-1209250.610	-6.623E-05	1.140E-03
8616.200	-2496.999	3448.795	-1210249.390	-6.744E-05	1.091E-03
8616.600	-2496.907	3447.748	-1211248.169	-6.623E-05	1.065E-03
8617.000	-2496.984	3446.723	-1212246.948	-5.651E-05	9.764E-04
8617.600	-2497.067	3445.324	-1213745.117	-5.529E-05	1.111E-03
8618.200	-2496.907	3444.018	-1215243.286	-6.441E-05	1.173E-03
8618.800	-2497.048	3442.696	-1216741.455	-6.076E-05	1.116E-03
8619.400	-2497.087	3441.433	-1218239.624	-7.291E-05	9.807E-04
8620.000	-2497.082	3440.292	-1219737.793	-7.656E-05	1.103E-03
8620.600	-2497.177	3439.173	-1221235.962	-6.319E-05	1.136E-03
8621.200	-2497.159	3438.112	-1222734.131	-6.562E-05	1.065E-03
8621.800	-2497.177	3437.073	-1224232.300	-5.954E-05	1.182E-03
8622.400	-2497.245	3436.045	-1225730.469	-7.960E-05	1.004E-03
8623.200	-2497.082	3434.750	-1227728.027	-5.954E-05	9.861E-04
8624.000	-2497.143	3433.557	-1229725.708	-7.899E-05	1.106E-03
8624.200	0.647	3598.665	-1229725.586	-7.656E-05	1.047E-03
8624.400	1.624	3599.727	-1229725.220	-6.623E-05	1.089E-03
8624.800	2.319	3600.992	-1229724.365	-6.623E-05	1.143E-03
8625.400	2.373	3602.409	-1229723.022	-7.473E-05	1.094E-03
8626.000	2.402	3603.498	-1229721.558	-6.258E-05	1.060E-03
8626.800	2.470	3604.691	-1229719.604	-7.716E-05	1.144E-03
8627.600	2.319	3605.701	-1229717.651	-6.927E-05	1.125E-03
8628.600	2.450	3606.742	-1229715.210	-6.866E-05	1.130E-03
8629.600	2.446	3607.680	-1229712.769	-7.534E-05	1.013E-03
8630.600	2.582	3608.489	-1229710.327	-9.843E-05	1.201E-03
8631.600	2.572	3609.169	-1229707.886	-7.960E-05	1.093E-03
8632.600	2.353	3609.788	-1229705.444	-6.744E-05	1.205E-03
8633.600	2.587	3610.331	-1229703.003	-5.711E-05	1.102E-03
8634.600	2.582	3610.869	-1229700.562	-9.600E-05	1.113E-03
8635.600	2.533	3611.337	-1229698.120	-7.473E-05	1.048E-03
8636.600	2.674	3611.788	-1229695.679	-7.595E-05	1.121E-03
8637.600	2.553	3612.144	-1229693.237	-7.413E-05	1.088E-03
8638.600	2.582	3612.498	-1229690.796	-5.529E-05	1.089E-03
8639.600	2.538	3612.867	-1229688.232	-8.263E-05	1.033E-03
8640.600	2.582	3613.192	-1229685.669	-7.230E-05	1.087E-03
8641.600	2.694	3613.434	-1229683.228	-8.932E-05	9.995E-04
8642.600	2.650	3613.719	-1229680.786	-8.324E-05	1.125E-03
8643.600	2.543	3613.982	-1229678.345	-6.623E-05	1.061E-03
8644.600	2.791	3614.245	-1229675.781	-6.380E-05	1.089E-03
8645.600	2.674	3614.464	-1229673.340	-7.899E-05	1.062E-03
8646.600	2.718	3614.663	-1229670.654	-7.838E-05	1.044E-03
8647.600	2.679	3614.864	-1229668.091	-6.987E-05	1.128E-03
8648.600	2.694	3615.092	-1229665.649	-5.590E-05	1.046E-03
8649.600	2.752	3615.251	-1229662.598	-6.137E-05	1.088E-03
8650.600	2.679	3615.409	-1229659.912	-7.352E-05	1.098E-03
8651.600	2.606	3615.527	-1229657.104	-6.137E-05	1.055E-03
8652.600	2.684	3615.689	-1229654.663	-6.076E-05	9.685E-04
8653.600	2.708	3615.824	-1229652.100	-6.866E-05	1.130E-03
8654.600	2.839	3615.936	-1229649.536	-6.987E-05	1.138E-03
8655.600	2.703	3616.047	-1229647.095	-7.352E-05	1.091E-03
8656.600	2.703	3616.213	-1229644.653	-4.618E-05	1.152E-03
8657.600	2.786	3616.239	-1229641.846	-6.866E-05	1.083E-03
8658.600	2.567	3616.442	-1229639.282	-6.319E-05	1.069E-03
8659.600	2.718	3616.537	-1229636.841	-7.838E-05	1.179E-03
8660.600	2.664	3616.645	-1229634.277	-7.838E-05	1.114E-03
8661.600	2.703	3616.693	-1229631.836	-7.048E-05	1.047E-03
8662.600	2.591	3616.797	-1229629.395	-8.932E-05	1.060E-03
8663.600	2.708	3616.884	-1229626.953	-8.385E-05	9.788E-04
8664.600	2.582	3616.954	-1229624.512	-6.805E-05	9.934E-04
8665.600	2.548	3617.044	-1229622.070	-7.170E-05	1.095E-03
8666.600	2.518	3617.106	-1229619.507	-6.805E-05	9.412E-04
8667.600	2.543	3617.180	-1229617.065	-8.385E-05	1.069E-03
8668.600	2.402	3617.203	-1229614.624	-6.623E-05	1.121E-03
8669.600	2.684	3617.302	-1229612.183	-5.043E-05	9.260E-04
8670.600	2.567	3617.318	-1229609.741	-6.562E-05	1.009E-03
8671.600	2.509	3617.436	-1229607.300	-7.838E-05	1.065E-03
8672.600	2.484	3617.464	-1229604.858	-5.651E-05	1.081E-03
8673.600	2.494	3617.519	-1229602.417	-6.319E-05	1.100E-03
8674.600	2.538	3617.542	-1229599.976	-8.263E-05	1.105E-03
8675.600	2.548	3617.610	-1229597.534	-5.711E-05	1.078E-03
8676.600	2.528	3617.657	-1229595.093	-6.927E-05	1.077E-03
8677.600	2.621	3617.698	-1229592.651	-7.777E-05	1.111E-03
8678.600	2.358	3617.764	-1229590.210	-6.987E-05	1.132E-03
8679.600	2.645	3617.805	-1229587.769	-6.441E-05	1.030E-03
8680.600	2.514	3617.830	-1229585.327	-6.319E-05	1.130E-03
8681.600	2.528	3617.915	-1229582.886	-7.291E-05	1.132E-03
8682.600	2.455	3617.881	-1229580.444	-6.501E-05	1.024E-03
8683.600	2.538	3617.939	-1229578.003	-7.170E-05	1.152E-03
8684.600	2.499	3617.987	-1229575.562	-7.413E-05	1.171E-03
8685.600	2.460	3618.001	-1229573.120	-6.137E-05	1.128E-03
8686.600	2.518	3618.048	-1229570.679	-6.562E-05	1.120E-03
8687.600	2.489	3618.085	-1229568.237	-6.684E-05	1.017E-03
8688.600	2.397	3618.111	-1229565.796	-6.380E-05	1.150E-03
8689.600	2.650	3618.094	-1229563.354	-7.595E-05	1.065E-03
8690.600	2.446	3618.184	-1229560.913	-6.076E-05	1.017E-03
8691.600	2.382	3618.211	-1229558.472	-8.628E-05	1.061E-03
8692.600	2.562	3618.188	-1229556.030	-6.987E-05	9.843E-04
8693.600	2.460	3618.246	-1229553.589	-7.352E-05	9.807E-04
8694.600	2.436	3618.275	-1229551.147	-6.562E-05	9.873E-04
8695.600	2.674	3618.267	-1229548.706	-6.623E-05	1.042E-03
8696.600	2.757	3618.333	-1229546.143	-7.534E-05	1.093E-03
8697.600	2.679	3618.350	-1229543.701	-6.501E-05	1.040E-03
8698.600	2.587	3618.365	-1229541.260	-3.949E-05	1.120E-03
8699.600	2.557	3618.415	-1229538.818	-7.352E-05	1.139E-03
8700.600	2.650	3618.412	-1229536.377	-8.628E-05	1.032E-03
8701.600	2.533	3618.423	-1229533.936	-6.684E-05	1.060E-03
8702.600	2.480	3618.440	-1229531.494	-6.927E-05	1.105E-03
8703.600	2.436	3618.468	-1229529.053	-6.015E-05	1.128E-03
8704.600	2.572	3618.457	-1229526.611	-5.225E-05	1.068E-03
8705.600	2.684	3618.525	-1229524.048	-7.413E-05	1.052E-03
8706.600	2.659	3618.508	-1229521.606	-5.590E-05	1.113E-03
8707.600	2.528	3618.545	-1229519.165	-7.473E-05	1.057E-03
8708.600	2.601	3618.566	-1229516.724	-6.501E-05	1.062E-03
8709.600	2.611	3618.548	-1229514.282	-7.413E-05	1.151E-03
8710.600	2.708	3618.582	-1229511.841	-6.744E-05	1.102E-03
8711.600	2.553	3618.635	-1229509.399	-7.352E-05	1.143E-03
8712.600	2.635	3618.634	-1229506.958	-5.651E-05	1.072E-03
8713.600	2.630	3618.628	-1229504.517	-7.170E-05	1.110E-03
8714.600	2.450	3618.631	-1229502.075	-6.076E-05	9.527E-04
8715.600	2.577	3618.669	-1229499.634	-7.413E-05	1.058E-03
8716.600	2.465	3618.676	-1229497.192	-6.927E-05	9.400E-04
8717.600	2.548	3618.693	-1229494.751	-6.987E-05	1.114E-03
8718.600	2.606	3618.719	-1229492.310	-6.987E-05	9.873E-04
8719.600	2.606	3618.683	-1229489.868	-5.408E-05	9.898E-04
8720.600	2.514	3618.752	-1229487.427	-6.684E-05	1.026E-03
8721.600	2.528	3618.721	-1229484.985	-6.927E-05	1.049E-03
8722.600	2.412	3618.753	-1229482.544	-7.291E-05	9.886E-04
8723.600	2.450	3618.741	-1229480.103	-7.838E-05	1.005E-03
8724.600	2.543	3618.796	-1229477.661	-6.258E-05	1.034E-03
8725.600	2.611	3618.790	-1229475.220	-8.385E-05	1.054E-03
8726.600	2.553	3618.801	-1229472.778	-6.927E-05	1.147E-03
8727.600	2.509	3618.790	-1229470.337	-8.263E-05	1.025E-03
8728.600	2.606	3618.778	-1229467.896	-6.987E-05	1.127E-03
8729.600	2.460	3618.840	-1229465.454	-7.960E-05	1.094E-03
8730.600	2.577	3618.842	-1229463.013	-8.385E-05	1.053E-03
8731.600	2.446	3618.880	-1229460.571	-6.866E-05	1.169E-03
8732.600	2.494	3618.852	-1229458.130	-8.020E-05	1.125E-03
8733.600	2.528	3618.872	-1229455.688	-7.291E-05	1.060E-03
8734.600	2.591	3618.901	-1229453.247	-8.020E-05	1.153E-03
8735.600	2.587	3618.899	-1229450.806	-7.048E-05	1.178E-03
8736.600	2.514	3618.879	-1229448.364	-5.894E-05	1.099E-03
8737.600	2.397	3618.891	-1229445.923	-7.777E-05	1.037E-03
8738.600	2.528	3618.908	-1229443.481	-7.656E-05	1.135E-03
8739.600	2.543	3618.960	-1229441.040	-5.590E-05	1.052E-03
8740.600	2.489	3618.973	-1229438.599	-7.109E-05	1.052E-03
8741.600	2.640	3618.907	-1229436.157	-7.473E-05	1.055E-03
8742.600	2.553	3618.963	-1229433.716	-8.689E-05	1.054E-03
8743.600	2.606	3618.933	-1229431.274	-6.501E-05	9.479E-04
8744.000	2.684	3618.951	-1229430.298	-6.319E-05	9.655E-04
