time /s	I /mA	E /V	Q /mC	An In 1	An In 2	Rs	Cs	Zab	Phase
0.200	-498.363	3.690	-99.673	-9.843E-05	1.042E-03				
0.600	-498.319	3.689	-299.015	-8.446E-05	1.036E-03				
1.400	-498.280	3.689	-697.674	-9.479E-05	1.012E-03				
3.000	-498.419	3.688	-1495.005	-5.711E-05	1.039E-03				
6.200	-498.404	3.687	-3089.799	-8.142E-05	1.015E-03				
12.600	-498.341	3.685	-6279.714	-1.003E-04	1.061E-03				
22.600	-498.372	3.683	-11263.674	-7.716E-05	1.093E-03				
32.600	-498.487	3.682	-16248.041	-9.175E-05	1.134E-03				
42.600	-498.409	3.681	-21232.498	-9.843E-05	1.134E-03				
52.600	-498.317	3.680	-26216.614	-9.539E-05	9.709E-04				
62.600	-498.241	3.679	-31200.298	-9.661E-05	1.043E-03				
72.600	-498.387	3.678	-36183.887	-9.175E-05	1.051E-03				
82.600	-498.402	3.677	-41167.633	-1.063E-04	1.128E-03				
92.600	-498.358	3.676	-46151.524	-9.965E-05	1.021E-03				
102.600	-498.482	3.676	-51135.124	-9.418E-05	1.083E-03				
112.600	-498.290	3.675	-56118.443	-9.357E-05	9.855E-04				
122.600	-498.441	3.674	-61101.772	-9.235E-05	1.094E-03				
132.600	-498.528	3.673	-66085.907	-9.843E-05	1.043E-03				
142.600	-498.246	3.673	-71069.229	-8.932E-05	1.017E-03				
152.600	-498.372	3.672	-76052.620	-7.048E-05	1.051E-03				
162.600	-498.377	3.672	-81035.942	-8.749E-05	1.015E-03				
172.600	-498.336	3.671	-86018.921	-7.838E-05	1.019E-03				
182.600	-498.353	3.670	-91002.762	-8.810E-05	1.164E-03				
192.600	-498.484	3.670	-95987.007	-8.810E-05	1.067E-03				
202.600	-498.443	3.669	-100971.756	-9.661E-05	9.928E-04				
212.600	-498.528	3.669	-105956.657	-9.722E-05	1.065E-03				
222.600	-498.487	3.668	-110941.231	-8.628E-05	1.083E-03				
232.600	-498.372	3.667	-115925.659	-8.385E-05	9.412E-04				
242.600	-498.545	3.667	-120910.728	-9.661E-05	1.046E-03				
252.600	-498.397	3.666	-125895.500	-9.418E-05	9.770E-04				
262.600	-498.628	3.666	-130880.646	-8.992E-05	1.109E-03				
272.600	-498.628	3.665	-135865.967	-1.136E-04	9.527E-04				
282.600	-498.462	3.665	-140851.181	-1.003E-04	1.018E-03				
292.600	-498.268	3.664	-145835.815	-9.965E-05	1.097E-03				
302.600	-498.569	3.664	-150821.014	-8.506E-05	1.077E-03				
312.600	-498.477	3.663	-155806.320	-8.263E-05	1.037E-03				
322.600	-498.521	3.662	-160791.611	-7.899E-05	1.098E-03				
332.600	-498.565	3.662	-165777.023	-7.534E-05	1.023E-03				
342.600	-498.747	3.661	-170763.260	-9.479E-05	9.794E-04				
352.600	-498.842	3.661	-175750.061	-8.081E-05	1.168E-03				
362.600	-498.560	3.660	-180736.191	-7.048E-05	1.130E-03				
372.600	-498.472	3.660	-185721.893	-8.081E-05	1.047E-03				
382.600	-498.407	3.659	-190706.497	-9.357E-05	1.126E-03				
392.600	-498.409	3.659	-195691.116	-8.324E-05	1.118E-03				
402.600	-498.458	3.658	-200675.537	-8.810E-05	1.097E-03				
412.600	-498.365	3.658	-205659.988	-9.053E-05	1.029E-03				
422.600	-498.475	3.657	-210644.638	-8.749E-05	1.016E-03				
432.600	-498.426	3.657	-215629.028	-9.539E-05	9.491E-04				
442.600	-498.329	3.656	-220613.281	-6.501E-05	1.192E-03				
452.600	-498.314	3.656	-225597.504	-7.899E-05	1.046E-03				
462.600	-498.416	3.655	-230581.253	-8.689E-05	1.077E-03				
472.600	-498.494	3.655	-235565.826	-8.081E-05	1.097E-03				
482.600	-498.268	3.654	-240550.034	-8.932E-05	1.116E-03				
492.600	-498.523	3.654	-245534.393	-6.987E-05	1.038E-03				
502.600	-498.426	3.653	-250518.646	-8.081E-05	1.040E-03				
512.600	-498.416	3.653	-255502.991	-8.385E-05	1.083E-03				
522.600	-498.455	3.652	-260487.061	-8.689E-05	1.027E-03				
532.600	-498.569	3.652	-265471.405	-8.567E-05	1.112E-03				
542.600	-498.516	3.651	-270455.536	-7.352E-05	1.036E-03				
552.600	-498.572	3.650	-275440.063	-8.020E-05	1.130E-03				
562.600	-498.506	3.650	-280425.171	-8.446E-05	1.074E-03				
572.600	-498.608	3.649	-285411.102	-7.230E-05	1.121E-03				
582.600	-498.390	3.649	-290395.966	-8.689E-05	1.136E-03				
592.600	-498.526	3.648	-295380.707	-7.413E-05	1.119E-03				
602.600	-498.625	3.648	-300366.272	-7.291E-05	1.052E-03				
612.600	-498.494	3.647	-305351.501	-8.628E-05	1.134E-03				
622.600	-498.555	3.647	-310336.487	-8.992E-05	1.109E-03				
632.600	-498.555	3.646	-315321.716	-8.324E-05	1.066E-03				
642.600	-498.628	3.646	-320306.915	-8.871E-05	9.764E-04				
652.600	-498.368	3.645	-325291.748	-8.081E-05	1.093E-03				
662.600	-498.482	3.645	-330276.917	-7.170E-05	9.290E-04				
672.600	-498.460	3.644	-335261.688	-8.689E-05	1.035E-03				
682.600	-498.492	3.644	-340246.246	-8.871E-05	9.873E-04				
692.600	-498.470	3.643	-345230.499	-8.263E-05	1.095E-03				
702.600	-498.569	3.643	-350215.729	-8.567E-05	1.013E-03				
712.600	-498.443	3.642	-355199.982	-8.749E-05	1.032E-03				
722.600	-498.582	3.642	-360185.059	-8.385E-05	1.150E-03				
732.600	-498.382	3.641	-365170.013	-7.413E-05	1.188E-03				
742.600	-498.470	3.641	-370154.175	-9.661E-05	1.092E-03				
752.600	-498.414	3.641	-375138.000	-7.716E-05	1.098E-03				
762.600	-498.438	3.640	-380121.429	-8.932E-05	1.039E-03				
772.600	-498.385	3.640	-385105.804	-7.716E-05	1.069E-03				
782.600	-498.428	3.639	-390090.210	-6.684E-05	1.057E-03				
792.600	-498.433	3.639	-395074.158	-8.749E-05	1.082E-03				
802.600	-498.470	3.638	-400057.983	-7.777E-05	1.066E-03				
812.600	-498.290	3.638	-405042.328	-8.203E-05	1.025E-03				
822.600	-498.436	3.637	-410026.367	-7.960E-05	1.066E-03				
832.600	-498.300	3.637	-415010.834	-9.235E-05	1.053E-03				
842.600	-498.414	3.636	-419995.148	-9.175E-05	1.038E-03				
852.600	-498.285	3.636	-424979.675	-7.960E-05	1.102E-03				
862.600	-498.569	3.635	-429963.745	-7.473E-05	9.952E-04				
872.600	-498.535	3.635	-434948.059	-8.932E-05	1.126E-03				
882.600	-498.577	3.634	-439932.739	-9.843E-05	1.047E-03				
892.600	-498.443	3.634	-444916.931	-7.230E-05	1.077E-03				
902.600	-498.458	3.633	-449900.635	-8.263E-05	1.095E-03				
912.600	-498.287	3.633	-454884.796	-7.352E-05	1.170E-03				
922.600	-498.307	3.632	-459868.744	-8.871E-05	1.039E-03				
932.600	-498.421	3.632	-464852.783	-9.418E-05	1.069E-03				
942.600	-498.380	3.631	-469836.334	-8.506E-05	1.043E-03				
952.600	-498.219	3.631	-474819.763	-8.628E-05	1.076E-03				
962.600	-498.591	3.631	-479803.284	-8.203E-05	1.100E-03				
972.600	-498.462	3.630	-484786.957	-7.777E-05	1.061E-03				
982.600	-498.453	3.630	-489771.149	-8.142E-05	1.011E-03				
992.600	-498.540	3.629	-494755.646	-1.039E-04	1.062E-03				
1002.600	-498.273	3.629	-499740.112	-1.009E-04	9.782E-04				
1012.600	-498.458	3.628	-504724.121	-9.114E-05	1.047E-03				
1022.600	-498.416	3.628	-509708.527	-9.965E-05	1.090E-03				
1032.600	-498.477	3.627	-514692.566	-8.081E-05	1.037E-03				
1042.600	-498.397	3.627	-519676.575	-9.053E-05	1.118E-03				
1052.600	-498.397	3.626	-524660.156	-9.114E-05	1.096E-03				
1062.600	-498.616	3.626	-529644.531	-7.656E-05	9.965E-04				
1072.600	-498.331	3.626	-534628.723	-7.960E-05	1.028E-03				
1082.600	-498.382	3.625	-539613.037	-7.534E-05	9.539E-04				
1092.600	-498.341	3.625	-544596.802	-8.810E-05	1.136E-03				
1102.600	-498.346	3.624	-549580.322	-9.296E-05	1.012E-03				
1112.600	-498.426	3.624	-554563.843	-8.567E-05	1.140E-03				
1122.600	-498.292	3.623	-559547.485	-8.689E-05	9.533E-04				
1132.600	-498.460	3.623	-564532.104	-1.033E-04	1.147E-03				
1142.600	-498.531	3.622	-569516.541	-7.656E-05	1.032E-03				
1152.600	-498.540	3.622	-574500.916	-8.567E-05	1.081E-03				
1162.600	-498.375	3.622	-579485.046	-7.352E-05	1.117E-03				
1172.600	-498.399	3.621	-584469.360	-7.170E-05	1.068E-03				
1182.600	-498.404	3.621	-589453.369	-6.927E-05	1.060E-03				
1192.600	-498.365	3.620	-594437.256	-7.899E-05	1.005E-03				
1202.600	-498.462	3.620	-599421.326	-8.506E-05	1.017E-03				
1212.600	-498.358	3.619	-604405.396	-9.053E-05	1.064E-03				
1222.600	-498.360	3.619	-609388.916	-7.352E-05	1.049E-03				
1232.600	-498.477	3.618	-614372.925	-8.871E-05	9.959E-04				
1242.600	-498.273	3.618	-619356.873	-8.567E-05	1.051E-03				
1252.600	-498.489	3.618	-624341.125	-9.722E-05	9.886E-04				
1262.600	-498.472	3.617	-629325.073	-9.114E-05	1.006E-03				
1272.600	-498.341	3.617	-634308.838	-1.057E-04	1.102E-03				
1282.600	-498.341	3.616	-639292.175	-8.446E-05	9.843E-04				
1292.600	-498.268	3.616	-644275.696	-7.473E-05	1.026E-03				
1302.600	-498.353	3.615	-649259.338	-9.053E-05	1.021E-03				
1312.600	-498.424	3.615	-654242.859	-7.960E-05	1.051E-03				
1322.600	-498.426	3.615	-659226.318	-8.142E-05	9.904E-04				
1332.600	-498.358	3.614	-664209.961	-8.628E-05	1.066E-03				
1342.600	-498.458	3.614	-669193.604	-9.479E-05	9.825E-04				
1352.600	-498.360	3.613	-674177.551	-8.689E-05	1.065E-03				
1362.600	-498.343	3.613	-679161.072	-8.749E-05	1.101E-03				
1372.600	-498.482	3.612	-684144.592	-6.744E-05	1.072E-03				
1382.600	-498.314	3.612	-689128.235	-8.871E-05	1.055E-03				
1392.600	-498.292	3.612	-694111.816	-8.810E-05	9.254E-04				
1402.600	-498.414	3.611	-699095.337	-8.203E-05	1.094E-03				
1412.600	-498.341	3.611	-704079.102	-7.899E-05	1.033E-03				
1422.600	-498.574	3.610	-709063.110	-9.661E-05	1.111E-03				
1432.600	-498.445	3.610	-714047.241	-9.843E-05	1.071E-03				
1442.600	-498.421	3.610	-719032.471	-1.003E-04	1.152E-03				
1452.600	-498.509	3.609	-724017.334	-1.021E-04	9.928E-04				
1462.600	-498.421	3.609	-729002.136	-9.357E-05	1.123E-03				
1472.600	-498.351	3.608	-733986.816	-8.142E-05	1.102E-03				
1482.600	-498.360	3.608	-738971.130	-8.567E-05	1.094E-03				
1492.600	-498.501	3.607	-743955.750	-8.142E-05	9.406E-04				
1502.600	-498.509	3.607	-748940.308	-8.263E-05	1.136E-03				
1512.600	-498.441	3.607	-753924.561	-8.081E-05	9.807E-04				
1522.600	-498.586	3.606	-758909.119	-9.175E-05	1.115E-03				
1532.600	-498.630	3.606	-763894.836	-8.142E-05	9.849E-04				
1542.600	-498.574	3.605	-768879.822	-1.003E-04	1.128E-03				
1552.600	-498.494	3.605	-773864.380	-7.899E-05	9.734E-04				
1562.600	-498.438	3.605	-778848.816	-1.015E-04	1.071E-03				
1572.600	-498.304	3.604	-783832.703	-8.263E-05	9.734E-04				
1582.600	-498.441	3.604	-788816.650	-6.805E-05	1.038E-03				
1592.600	-498.307	3.603	-793800.659	-7.109E-05	1.055E-03				
1602.600	-498.377	3.603	-798784.485	-9.114E-05	1.063E-03				
1612.600	-498.321	3.603	-803768.250	-9.235E-05	9.886E-04				
1622.600	-498.477	3.602	-808752.258	-8.567E-05	9.673E-04				
1632.600	-498.263	3.602	-813736.389	-6.137E-05	1.017E-03				
1642.600	-498.319	3.601	-818720.398	-7.899E-05	1.099E-03				
1652.600	-498.368	3.601	-823704.346	-7.656E-05	9.454E-04				
1662.600	-498.479	3.601	-828688.660	-8.142E-05	1.041E-03				
1672.600	-498.501	3.600	-833672.668	-7.170E-05	1.100E-03				
1682.600	-498.341	3.600	-838656.372	-7.899E-05	1.126E-03				
1692.600	-498.326	3.600	-843639.832	-9.661E-05	1.063E-03				
1702.600	-498.411	3.599	-848623.291	-9.053E-05	1.119E-03				
1712.600	-498.433	3.599	-853606.812	-9.357E-05	1.112E-03				
1722.600	-498.494	3.598	-858590.149	-9.235E-05	1.089E-03				
1732.600	-498.283	3.598	-863573.975	-8.810E-05	1.035E-03				
1742.600	-498.414	3.598	-868557.617	-9.296E-05	1.130E-03				
1752.600	-498.506	3.597	-873541.443	-8.628E-05	1.092E-03				
1762.600	-498.565	3.597	-878525.085	-7.291E-05	1.128E-03				
1772.600	-498.433	3.596	-883508.911	-7.777E-05	1.039E-03				
1782.600	-498.462	3.596	-888492.676	-8.810E-05	1.085E-03				
1792.600	-498.253	3.596	-893476.379	-9.296E-05	1.090E-03				
1802.600	-498.360	3.595	-898460.022	-8.628E-05	1.020E-03				
1812.600	-498.343	3.595	-903443.970	-1.075E-04	1.128E-03				
1822.600	-498.307	3.594	-908427.429	-8.081E-05	1.002E-03				
1832.600	-498.346	3.594	-913411.377	-7.838E-05	1.063E-03				
1842.600	-498.465	3.594	-918395.142	-8.749E-05	1.094E-03				
1852.600	-498.419	3.593	-923379.578	-1.039E-04	1.082E-03				
1862.600	-498.390	3.593	-928364.075	-8.689E-05	1.019E-03				
1872.600	-498.312	3.593	-933347.717	-7.473E-05	9.989E-04				
1882.600	-498.377	3.592	-938331.177	-8.506E-05	1.058E-03				
1892.600	-498.336	3.592	-943314.758	-7.838E-05	1.110E-03				
1902.600	-498.407	3.591	-948297.791	-9.479E-05	1.004E-03				
1912.600	-498.343	3.591	-953281.799	-8.506E-05	1.103E-03				
1922.600	-498.397	3.591	-958265.503	-8.081E-05	9.971E-04				
1932.600	-498.441	3.590	-963249.451	-8.263E-05	1.023E-03				
1942.600	-498.314	3.590	-968233.154	-7.109E-05	1.031E-03				
1952.600	-498.569	3.589	-973217.224	-9.539E-05	1.084E-03				
1962.600	-498.363	3.589	-978201.904	-1.039E-04	1.047E-03				
1972.600	-498.334	3.589	-983185.669	-9.114E-05	1.059E-03				
1982.600	-498.338	3.588	-988169.495	-7.109E-05	1.038E-03				
1992.600	-498.329	3.588	-993152.710	-8.567E-05	1.077E-03				
2002.600	-498.407	3.588	-998136.230	-9.479E-05	1.075E-03				
2012.600	-498.370	3.587	-1003119.446	-9.357E-05	1.078E-03				
2017.200	-498.407	3.587	-1005411.804	-7.960E-05	1.039E-03				
2017.400	-509.531	3.586	-1005513.733	-8.871E-05	1.086E-03				
2017.800	-509.285	3.586	-1005717.468	-8.203E-05	1.077E-03				
2018.600	-508.680	3.586	-1006124.512	-8.810E-05	1.027E-03				
2020.200	-507.933	3.586	-1006937.500	-7.291E-05	9.952E-04				
2023.400	-506.042	3.586	-1008559.692	-9.782E-05	9.989E-04				
2029.800	-503.473	3.586	-1011789.307	-7.230E-05	1.061E-03				
2039.800	-498.774	3.586	-1016798.279	-8.992E-05	9.248E-04				
2049.800	-494.818	3.586	-1021765.625	-9.418E-05	1.108E-03				
2059.800	-490.878	3.586	-1026692.871	-8.203E-05	1.046E-03				
2069.800	-487.278	3.586	-1031582.764	-9.479E-05	1.047E-03				
2079.800	-483.240	3.586	-1036434.814	-9.296E-05	1.058E-03				
2089.800	-479.486	3.586	-1041248.657	-9.722E-05	1.094E-03				
2099.800	-475.918	3.586	-1046025.757	-9.114E-05	1.051E-03				
2109.800	-472.570	3.586	-1050767.334	-8.020E-05	1.054E-03				
2119.800	-469.050	3.586	-1055473.633	-8.689E-05	1.032E-03				
2129.800	-465.438	3.586	-1060145.386	-9.418E-05	1.001E-03				
2139.800	-461.923	3.586	-1064781.372	-1.082E-04	1.114E-03				
2149.800	-458.587	3.586	-1069383.789	-7.838E-05	9.861E-04				
2159.800	-455.271	3.586	-1073952.026	-9.235E-05	1.047E-03				
2169.800	-451.875	3.586	-1078487.549	-9.539E-05	1.049E-03				
2179.800	-448.671	3.586	-1082989.502	-9.235E-05	1.090E-03				
2189.800	-445.331	3.586	-1087459.106	-8.810E-05	1.024E-03				
2199.800	-442.363	3.586	-1091897.949	-9.235E-05	1.144E-03				
2209.800	-439.181	3.586	-1096305.298	-9.539E-05	1.073E-03				
2219.800	-436.157	3.586	-1100680.664	-9.357E-05	1.123E-03				
2229.800	-433.135	3.586	-1105026.245	-8.992E-05	1.116E-03				
2239.800	-430.074	3.586	-1109341.675	-8.932E-05	1.060E-03				
2249.800	-426.819	3.586	-1113626.953	-9.296E-05	1.116E-03				
2259.800	-424.187	3.586	-1117882.202	-9.053E-05	1.163E-03				
2269.800	-421.046	3.586	-1122106.934	-7.838E-05	1.066E-03				
2279.800	-417.937	3.586	-1126301.514	-8.324E-05	1.044E-03				
2289.800	-415.180	3.586	-1130466.919	-8.871E-05	1.099E-03				
2299.800	-412.319	3.586	-1134603.638	-8.081E-05	1.038E-03				
2309.800	-409.508	3.586	-1138712.769	-8.385E-05	1.046E-03				
2319.800	-406.715	3.586	-1142792.969	-1.154E-04	1.048E-03				
2329.800	-403.815	3.586	-1146844.849	-7.170E-05	1.021E-03				
2339.800	-401.260	3.586	-1150869.995	-9.175E-05	1.097E-03				
2349.800	-398.401	3.586	-1154866.699	-8.203E-05	9.703E-04				
2359.800	-395.800	3.586	-1158835.449	-8.567E-05	1.031E-03				
2369.800	-392.956	3.586	-1162777.344	-7.291E-05	1.119E-03				
2379.800	-390.277	3.586	-1166693.848	-1.130E-04	1.046E-03				
2389.800	-387.630	3.586	-1170582.886	-7.838E-05	1.132E-03				
2399.800	-385.075	3.586	-1174445.801	-8.263E-05	1.082E-03				
2409.800	-382.296	3.586	-1178281.860	-9.600E-05	1.013E-03				
2419.800	-379.736	3.586	-1182091.309	-7.230E-05	1.077E-03				
2429.800	-377.211	3.586	-1185875.488	-1.051E-04	1.061E-03				
2439.800	-374.634	3.586	-1189635.010	-8.749E-05	1.057E-03				
2449.800	-372.106	3.586	-1193369.873	-8.628E-05	1.065E-03				
2459.800	-369.689	3.586	-1197079.224	-8.992E-05	1.034E-03				
2469.800	-367.453	3.586	-1200763.550	-8.689E-05	1.012E-03				
2479.800	-364.810	3.586	-1204423.706	-9.479E-05	1.103E-03				
2489.800	-362.508	3.586	-1208059.448	-9.235E-05	9.709E-04				
2499.800	-360.021	3.586	-1211672.363	-1.082E-04	1.090E-03				
2509.800	-357.474	3.586	-1215260.620	-7.838E-05	1.075E-03				
2519.800	-355.152	3.586	-1218824.341	-6.197E-05	1.042E-03				
2529.800	-353.030	3.586	-1222364.990	-1.045E-04	9.825E-04				
2539.800	-350.638	3.586	-1225882.935	-8.992E-05	9.636E-04				
2549.800	-348.596	3.586	-1229377.930	-7.413E-05	1.037E-03				
2559.800	-346.145	3.586	-1232850.464	-8.142E-05	1.112E-03				
2569.800	-343.858	3.586	-1236300.049	-9.296E-05	1.074E-03				
2579.800	-341.699	3.586	-1239727.051	-9.175E-05	1.056E-03				
2589.800	-339.244	3.586	-1243131.836	-8.749E-05	1.081E-03				
2599.800	-337.377	3.586	-1246514.526	-8.446E-05	1.133E-03				
2609.800	-335.153	3.586	-1249875.610	-9.843E-05	1.053E-03				
2619.800	-333.038	3.586	-1253215.942	-1.021E-04	1.024E-03				
2629.800	-330.852	3.586	-1256534.058	-8.810E-05	1.065E-03				
2639.800	-328.416	3.586	-1259830.811	-7.838E-05	9.813E-04				
2649.800	-326.715	3.586	-1263106.323	-9.235E-05	1.124E-03				
2659.800	-324.468	3.586	-1266361.084	-8.992E-05	1.028E-03				
2669.800	-322.339	3.586	-1269594.849	-8.932E-05	1.147E-03				
2679.800	-320.209	3.586	-1272808.105	-8.263E-05	1.064E-03				
2689.800	-318.116	3.586	-1276000.610	-8.871E-05	1.073E-03				
2699.800	-316.288	3.586	-1279172.729	-8.203E-05	1.012E-03				
2709.800	-314.241	3.586	-1282324.219	-9.539E-05	1.174E-03				
2719.800	-312.277	3.586	-1285455.933	-9.479E-05	1.011E-03				
2729.800	-310.301	3.586	-1288568.359	-1.033E-04	1.062E-03				
2739.800	-308.414	3.586	-1291662.842	-8.628E-05	9.667E-04				
2749.800	-306.258	3.586	-1294736.694	-9.235E-05	1.149E-03				
2759.800	-304.413	3.586	-1297790.405	-8.871E-05	9.624E-04				
2769.800	-302.563	3.586	-1300824.707	-9.782E-05	1.123E-03				
2779.800	-300.548	3.586	-1303839.722	-9.600E-05	1.017E-03				
2789.800	-298.654	3.586	-1306835.938	-1.021E-04	1.076E-03				
2799.800	-296.770	3.586	-1309812.988	-9.479E-05	1.004E-03				
2809.800	-294.966	3.586	-1312771.118	-9.479E-05	1.023E-03				
2819.800	-293.213	3.586	-1315711.548	-7.838E-05	1.060E-03				
2829.800	-291.327	3.586	-1318633.301	-8.628E-05	1.058E-03				
2839.800	-289.436	3.586	-1321536.743	-6.866E-05	1.081E-03				
2849.800	-287.719	3.586	-1324423.096	-8.567E-05	1.086E-03				
2859.800	-286.013	3.586	-1327290.894	-1.033E-04	1.017E-03				
2869.800	-284.158	3.586	-1330141.235	-9.418E-05	1.044E-03				
2879.800	-282.634	3.586	-1332973.511	-8.263E-05	1.071E-03				
2889.800	-280.643	3.586	-1335789.917	-9.661E-05	1.078E-03				
2899.800	-279.014	3.586	-1338588.745	-8.567E-05	1.068E-03				
2909.800	-277.359	3.586	-1341371.216	-7.230E-05	1.094E-03				
2919.800	-275.686	3.586	-1344135.986	-8.203E-05	1.055E-03				
2929.800	-273.875	3.586	-1346884.399	-8.932E-05	1.132E-03				
2939.800	-272.251	3.586	-1349615.601	-8.506E-05	1.122E-03				
2949.800	-270.712	3.586	-1352330.566	-8.567E-05	1.157E-03				
2959.800	-268.972	3.586	-1355028.687	-1.039E-04	1.012E-03				
2969.800	-267.436	3.586	-1357709.717	-8.506E-05	1.153E-03				
2979.800	-265.593	3.586	-1360374.634	-8.810E-05	1.128E-03				
2989.800	-264.329	3.586	-1363023.804	-9.722E-05	1.009E-03				
2999.800	-262.557	3.586	-1365656.494	-8.142E-05	1.095E-03				
3009.800	-260.916	3.586	-1368274.170	-1.003E-04	1.029E-03				
3019.800	-259.576	3.586	-1370877.197	-9.114E-05	1.068E-03				
3029.800	-257.909	3.586	-1373464.111	-1.027E-04	1.034E-03				
3039.800	-256.360	3.586	-1376035.400	-7.291E-05	9.886E-04				
3049.800	-254.651	3.586	-1378591.919	-7.534E-05	1.092E-03				
3059.800	-253.278	3.586	-1381132.813	-8.689E-05	1.077E-03				
3069.800	-251.554	3.586	-1383656.250	-9.175E-05	1.017E-03				
3079.800	-250.202	3.586	-1386164.307	-1.161E-04	1.080E-03				
3089.800	-248.627	3.586	-1388658.325	-6.623E-05	1.029E-03				
3099.800	-247.217	3.586	-1391137.207	-1.082E-04	1.070E-03				
3109.800	-245.496	3.586	-1393602.295	-8.810E-05	1.007E-03				
3119.800	-244.193	3.586	-1396050.781	-8.871E-05	1.020E-03				
3129.800	-242.912	3.586	-1398486.206	-7.960E-05	1.012E-03				
3139.800	-241.551	3.586	-1400907.227	-8.749E-05	1.083E-03				
3149.800	-240.211	3.586	-1403313.599	-9.600E-05	1.047E-03				
3159.800	-238.607	3.586	-1405706.177	-7.960E-05	1.068E-03				
3169.800	-237.070	3.586	-1408084.473	-1.015E-04	1.078E-03				
3179.800	-235.463	3.586	-1410447.510	-7.960E-05	1.106E-03				
3189.800	-234.297	3.586	-1412798.096	-9.357E-05	1.034E-03				
3199.800	-232.964	3.586	-1415133.911	-8.992E-05	9.843E-04				
3209.800	-231.401	3.586	-1417455.566	-9.114E-05	1.065E-03				
3219.800	-230.179	3.586	-1419764.160	-1.045E-04	1.009E-03				
3229.800	-228.727	3.586	-1422059.326	-6.866E-05	9.880E-04				
3239.800	-227.560	3.586	-1424341.431	-9.235E-05	1.041E-03				
3249.800	-226.265	3.586	-1426609.985	-9.053E-05	1.125E-03				
3259.800	-225.093	3.586	-1428866.699	-8.324E-05	1.073E-03				
3269.800	-223.625	3.586	-1431109.131	-6.441E-05	1.136E-03				
3279.800	-222.314	3.586	-1433337.891	-1.033E-04	9.861E-04				
3289.800	-221.019	3.586	-1435553.711	-7.960E-05	1.102E-03				
3299.800	-219.745	3.586	-1437756.592	-7.656E-05	1.113E-03				
3309.800	-218.345	3.586	-1439947.266	-1.009E-04	1.076E-03				
3319.800	-217.115	3.586	-1442124.023	-8.020E-05	1.106E-03				
3329.800	-215.751	3.586	-1444288.940	-8.932E-05	1.032E-03				
3339.800	-214.615	3.586	-1446441.162	-8.871E-05	1.105E-03				
3349.800	-213.368	3.586	-1448581.299	-7.595E-05	1.102E-03				
3359.800	-212.155	3.586	-1450709.229	-1.051E-04	1.003E-03				
3369.800	-210.906	3.586	-1452824.829	-8.506E-05	1.130E-03				
3379.800	-209.795	3.586	-1454928.955	-8.506E-05	1.046E-03				
3389.800	-208.463	3.586	-1457020.020	-9.539E-05	1.135E-03				
3399.800	-207.374	3.586	-1459098.877	-9.175E-05	9.995E-04				
3409.800	-206.289	3.586	-1461167.236	-9.053E-05	1.125E-03				
3419.800	-204.731	3.586	-1463222.778	-8.020E-05	9.229E-04				
3429.800	-203.751	3.586	-1465266.968	-8.385E-05	9.655E-04				
3439.800	-202.526	3.586	-1467299.805	-7.473E-05	1.016E-03				
3449.800	-201.564	3.586	-1469320.190	-1.088E-04	1.134E-03				
3459.800	-200.256	3.586	-1471329.468	-1.015E-04	1.100E-03				
3469.800	-199.257	3.586	-1473327.881	-1.015E-04	9.922E-04				
3479.800	-197.903	3.586	-1475316.040	-9.235E-05	1.033E-03				
3489.800	-197.093	3.586	-1477291.870	-8.567E-05	9.983E-04				
3499.800	-195.904	3.586	-1479255.981	-1.027E-04	1.063E-03				
3509.800	-194.801	3.586	-1481208.740	-1.045E-04	1.096E-03				
3519.800	-193.828	3.586	-1483152.100	-8.567E-05	9.357E-04				
3529.800	-192.698	3.586	-1485083.618	-8.871E-05	1.026E-03				
3539.800	-191.346	3.586	-1487003.906	-8.385E-05	1.049E-03				
3549.800	-190.542	3.586	-1488914.063	-8.567E-05	1.109E-03				
3559.800	-189.307	3.586	-1490812.988	-8.324E-05	1.029E-03				
3569.800	-188.235	3.586	-1492701.294	-7.595E-05	1.120E-03				
3579.800	-187.189	3.586	-1494578.491	-8.932E-05	1.065E-03				
3589.800	-186.132	3.586	-1496444.458	-8.810E-05	1.133E-03				
3599.800	-185.014	3.586	-1498299.561	-7.899E-05	1.006E-03				
3609.800	-183.691	3.586	-1500143.555	-7.838E-05	1.049E-03				
3619.800	-182.838	3.586	-1501977.417	-9.114E-05	9.424E-04				
3629.800	-181.936	3.586	-1503801.270	-7.656E-05	1.106E-03				
3639.800	-180.842	3.586	-1505615.845	-8.992E-05	1.035E-03				
3649.800	-180.037	3.586	-1507420.288	-9.722E-05	1.069E-03				
3659.800	-178.951	3.586	-1509215.332	-9.782E-05	1.091E-03				
3669.800	-177.991	3.586	-1510999.756	-8.871E-05	1.049E-03				
3679.800	-176.819	3.586	-1512774.292	-7.656E-05	1.030E-03				
3689.800	-175.970	3.586	-1514538.696	-9.479E-05	1.062E-03				
3699.800	-174.986	3.586	-1516293.579	-9.175E-05	1.084E-03				
3709.800	-174.089	3.586	-1518039.429	-1.015E-04	1.054E-03				
3719.800	-172.910	3.586	-1519774.170	-1.009E-04	9.527E-04				
3729.800	-172.064	3.586	-1521498.779	-6.684E-05	9.849E-04				
3739.800	-171.252	3.586	-1523214.722	-8.142E-05	1.113E-03				
3749.800	-170.075	3.586	-1524921.387	-8.628E-05	1.091E-03				
3759.800	-169.276	3.586	-1526618.286	-1.100E-04	1.147E-03				
3769.800	-168.454	3.586	-1528307.251	-9.357E-05	9.764E-04				
3779.800	-167.326	3.586	-1529985.718	-1.027E-04	1.131E-03				
3789.800	-166.439	3.586	-1531655.151	-1.021E-04	1.061E-03				
3799.800	-165.478	3.586	-1533315.186	-9.782E-05	1.181E-03				
3809.800	-164.674	3.586	-1534966.431	-9.904E-05	1.083E-03				
3819.800	-163.794	3.586	-1536609.497	-1.063E-04	1.138E-03				
3829.800	-162.651	3.586	-1538243.164	-9.114E-05	9.971E-04				
3839.800	-161.812	3.586	-1539866.699	-9.539E-05	1.104E-03				
3849.800	-161.168	3.586	-1541481.812	-7.352E-05	1.077E-03				
3859.800	-160.186	3.586	-1543088.379	-8.446E-05	9.959E-04				
3869.800	-159.296	3.586	-1544685.547	-9.114E-05	1.051E-03				
3879.800	-158.309	3.586	-1546274.292	-8.810E-05	1.072E-03				
3889.800	-157.631	3.586	-1547853.882	-8.992E-05	9.047E-04				
3899.800	-156.853	3.586	-1549425.781	-1.015E-04	1.061E-03				
3909.800	-156.100	3.586	-1550990.234	-1.033E-04	1.070E-03				
3919.800	-154.952	3.586	-1552545.776	-8.749E-05	1.122E-03				
3929.800	-154.182	3.586	-1554092.773	-8.871E-05	1.002E-03				
3939.800	-153.355	3.586	-1555631.104	-1.009E-04	1.062E-03				
3949.800	-152.405	3.586	-1557160.034	-1.033E-04	1.051E-03				
3959.800	-151.957	3.586	-1558681.396	-8.142E-05	1.047E-03				
3969.800	-151.012	3.586	-1560195.313	-8.506E-05	1.062E-03				
3979.800	-150.231	3.586	-1561699.585	-9.175E-05	1.141E-03				
3989.800	-149.334	3.586	-1563196.899	-7.838E-05	9.776E-04				
3999.800	-148.420	3.586	-1564685.791	-9.296E-05	1.029E-03				
4009.800	-147.518	3.586	-1566165.649	-9.782E-05	9.412E-04				
4019.800	-146.967	3.586	-1567638.062	-8.324E-05	1.103E-03				
4029.800	-146.283	3.586	-1569103.149	-1.027E-04	1.102E-03				
4039.800	-145.185	3.586	-1570559.570	-1.106E-04	1.049E-03				
4049.800	-144.635	3.586	-1572008.179	-8.749E-05	1.061E-03				
4059.800	-143.801	3.586	-1573448.486	-1.069E-04	1.026E-03				
4069.800	-143.157	3.586	-1574882.080	-7.838E-05	1.120E-03				
4079.800	-142.107	3.586	-1576308.472	-8.992E-05	1.038E-03				
4089.800	-141.368	3.586	-1577726.685	-9.539E-05	1.095E-03				
4099.800	-140.537	3.586	-1579137.573	-8.932E-05	1.060E-03				
4109.800	-140.194	3.586	-1580541.260	-7.352E-05	1.162E-03				
4119.800	-139.280	3.586	-1581937.744	-9.235E-05	9.807E-04				
4129.800	-138.699	3.586	-1583326.782	-8.446E-05	9.479E-04				
4139.800	-137.838	3.586	-1584708.618	-8.385E-05	1.001E-03				
4149.800	-137.243	3.586	-1586082.886	-8.506E-05	1.068E-03				
4159.800	-136.421	3.586	-1587451.294	-8.628E-05	1.040E-03				
4169.800	-135.701	3.586	-1588811.401	-9.235E-05	1.103E-03				
4179.800	-134.741	3.586	-1590165.283	-7.716E-05	9.855E-04				
4189.800	-134.009	3.586	-1591510.132	-9.418E-05	1.081E-03				
4199.800	-133.402	3.586	-1592848.877	-8.324E-05	1.106E-03				
4209.800	-133.120	3.586	-1594179.565	-8.506E-05	1.088E-03				
4219.800	-132.038	3.586	-1595502.808	-9.235E-05	1.040E-03				
4229.800	-131.365	3.586	-1596818.848	-9.296E-05	1.040E-03				
4239.800	-130.752	3.586	-1598127.808	-8.749E-05	1.047E-03				
4249.800	-130.025	3.586	-1599431.152	-9.965E-05	1.035E-03				
4259.800	-129.366	3.586	-1600727.905	-9.904E-05	1.062E-03				
4269.800	-128.836	3.586	-1602018.188	-9.782E-05	1.086E-03				
4279.800	-128.180	3.586	-1603302.002	-9.357E-05	9.703E-04				
4289.800	-127.446	3.586	-1604579.956	-8.567E-05	1.110E-03				
4299.800	-126.758	3.586	-1605851.074	-1.045E-04	1.149E-03				
4309.800	-126.041	3.586	-1607114.990	-9.296E-05	1.074E-03				
4319.800	-125.212	3.586	-1608371.826	-8.749E-05	1.052E-03				
4329.800	-124.728	3.586	-1609622.192	-9.904E-05	9.722E-04				
4339.800	-124.108	3.586	-1610866.821	-8.749E-05	9.770E-04				
4349.800	-123.668	3.586	-1612104.004	-8.992E-05	1.058E-03				
4359.800	-122.742	3.586	-1613335.327	-8.749E-05	1.051E-03				
4369.800	-122.302	3.586	-1614560.303	-9.418E-05	1.006E-03				
4379.800	-121.653	3.586	-1615778.931	-8.871E-05	1.092E-03				
4389.800	-121.067	3.586	-1616990.723	-8.506E-05	1.093E-03				
4399.800	-120.175	3.586	-1618196.167	-9.722E-05	1.081E-03				
4409.800	-119.662	3.586	-1619396.118	-8.749E-05	1.026E-03				
4419.800	-118.972	3.586	-1620589.111	-8.992E-05	1.094E-03				
4429.800	-118.468	3.586	-1621775.879	-9.235E-05	1.044E-03				
4439.800	-117.929	3.586	-1622956.665	-8.628E-05	1.143E-03				
4449.800	-117.114	3.586	-1624130.859	-9.843E-05	9.758E-04				
4459.800	-116.472	3.586	-1625300.049	-9.965E-05	1.074E-03				
4469.800	-115.889	3.586	-1626462.524	-9.843E-05	1.117E-03				
4479.800	-115.478	3.586	-1627620.483	-7.899E-05	1.088E-03				
4489.800	-114.997	3.586	-1628771.362	-8.749E-05	1.103E-03				
4499.800	-114.234	3.586	-1629916.382	-1.124E-04	1.074E-03				
4509.800	-113.584	3.586	-1631056.030	-8.749E-05	1.046E-03				
4519.800	-112.906	3.586	-1632188.721	-9.418E-05	1.158E-03				
4529.800	-112.734	3.586	-1633316.895	-9.600E-05	1.115E-03				
4539.800	-111.951	3.586	-1634438.232	-1.021E-04	1.111E-03				
4549.800	-111.304	3.586	-1635554.077	-9.661E-05	1.006E-03				
4559.800	-110.650	3.586	-1636664.673	-9.418E-05	1.043E-03				
4569.800	-110.145	3.586	-1637768.799	-1.003E-04	1.029E-03				
4579.800	-109.369	3.586	-1638866.943	-8.932E-05	1.063E-03				
4589.800	-109.007	3.586	-1639960.083	-9.539E-05	9.424E-04				
4599.800	-108.708	3.586	-1641048.950	-1.094E-04	1.031E-03				
4609.800	-108.173	3.586	-1642131.958	-8.992E-05	1.024E-03				
4619.800	-107.424	3.586	-1643210.571	-9.661E-05	1.078E-03				
4629.800	-107.108	3.586	-1644284.180	-8.749E-05	1.084E-03				
4639.800	-106.411	3.586	-1645350.586	-9.843E-05	1.042E-03				
4649.800	-106.165	3.586	-1646412.842	-8.385E-05	1.046E-03				
4659.800	-105.662	3.586	-1647471.313	-9.661E-05	1.088E-03				
4669.800	-104.852	3.586	-1648524.048	-7.595E-05	1.000E-03				
4679.800	-104.310	3.586	-1649570.313	-8.992E-05	1.076E-03				
4689.800	-103.802	3.586	-1650612.183	-9.053E-05	1.025E-03				
4699.800	-103.136	3.586	-1651648.438	-8.081E-05	1.035E-03				
4709.800	-102.842	3.586	-1652678.467	-8.810E-05	9.995E-04				
4719.800	-102.285	3.586	-1653703.491	-9.296E-05	1.048E-03				
4729.800	-101.699	3.586	-1654723.511	-7.595E-05	1.056E-03				
4739.800	-101.289	3.586	-1655737.549	-9.357E-05	1.035E-03				
4749.800	-100.516	3.586	-1656747.437	-9.357E-05	1.020E-03				
4759.800	-100.341	3.586	-1657753.540	-9.053E-05	1.068E-03				
4769.800	-99.743	3.586	-1658752.563	-8.506E-05	1.069E-03				
4779.800	-99.125	3.586	-1659747.437	-9.418E-05	1.072E-03				
4789.800	-98.889	3.586	-1660736.572	-1.075E-04	1.094E-03				
4799.800	-98.048	3.586	-1661722.168	-7.716E-05	1.012E-03				
4809.800	-97.953	3.586	-1662702.271	-7.960E-05	1.057E-03				
4819.800	-97.387	3.586	-1663678.711	-1.185E-04	1.058E-03				
4829.800	-96.925	3.586	-1664649.902	-9.418E-05	1.151E-03				
4839.800	-96.322	3.586	-1665616.333	-8.446E-05	9.679E-04				
4849.800	-95.865	3.586	-1666578.003	-8.932E-05	1.048E-03				
4859.800	-95.620	3.586	-1667536.011	-1.009E-04	9.479E-04				
4869.800	-95.129	3.586	-1668489.136	-9.539E-05	9.873E-04				
4879.800	-94.543	3.586	-1669437.500	-8.932E-05	1.038E-03				
4889.800	-93.979	3.586	-1670380.249	-8.871E-05	1.053E-03				
4899.800	-93.748	3.586	-1671318.604	-8.142E-05	9.952E-04				
4909.800	-93.009	3.586	-1672252.686	-9.357E-05	1.064E-03				
4919.800	-92.805	3.586	-1673182.251	-9.053E-05	9.952E-04				
4929.800	-92.282	3.586	-1674107.056	-8.081E-05	1.041E-03				
4939.800	-91.827	3.586	-1675027.710	-1.003E-04	9.977E-04				
4949.800	-91.293	3.586	-1675943.359	-9.175E-05	1.097E-03				
4959.800	-90.981	3.586	-1676855.103	-9.782E-05	9.977E-04				
4969.800	-90.255	3.586	-1677762.329	-1.039E-04	1.015E-03				
4979.800	-90.084	3.586	-1678665.527	-1.088E-04	9.855E-04				
4989.800	-89.545	3.586	-1679563.477	-7.595E-05	1.130E-03				
4999.800	-89.068	3.586	-1680456.299	-8.810E-05	1.068E-03				
5009.800	-88.913	3.586	-1681346.558	-8.567E-05	1.098E-03				
5019.800	-88.514	3.586	-1682232.178	-9.235E-05	1.068E-03				
5029.800	-87.889	3.586	-1683114.014	-8.506E-05	1.061E-03				
5039.800	-87.748	3.586	-1683992.798	-9.782E-05	1.031E-03				
5049.800	-87.123	3.586	-1684866.577	-9.114E-05	9.898E-04				
5059.800	-86.885	3.586	-1685735.352	-8.628E-05	1.067E-03				
5069.800	-86.445	3.586	-1686601.563	-8.992E-05	1.134E-03				
5079.800	-85.820	3.586	-1687462.524	-6.987E-05	1.176E-03				
5089.800	-85.650	3.586	-1688318.970	-9.053E-05	1.039E-03				
5099.800	-85.334	3.586	-1689172.852	-1.033E-04	9.564E-04				
5109.800	-84.933	3.586	-1690022.705	-9.904E-05	1.126E-03				
5119.800	-84.398	3.586	-1690868.530	-8.689E-05	9.843E-04				
5129.800	-84.051	3.586	-1691710.205	-9.965E-05	1.038E-03				
5139.800	-83.640	3.586	-1692546.997	-8.810E-05	9.764E-04				
5149.800	-83.066	3.586	-1693381.592	-9.175E-05	9.618E-04				
5159.800	-82.748	3.586	-1694211.792	-9.843E-05	1.129E-03				
5169.800	-82.524	3.586	-1695038.940	-9.479E-05	1.058E-03				
5179.800	-82.184	3.586	-1695862.671	-9.479E-05	1.069E-03				
5189.800	-81.734	3.586	-1696681.885	-9.418E-05	9.545E-04				
5199.800	-81.226	3.586	-1697495.850	-9.539E-05	1.108E-03				
5209.800	-81.010	3.586	-1698306.763	-9.235E-05	9.460E-04				
5219.800	-80.732	3.586	-1699113.281	-9.965E-05	1.157E-03				
5229.800	-80.057	3.586	-1699915.527	-8.203E-05	1.022E-03				
5239.800	-79.770	3.586	-1700715.088	-8.324E-05	1.004E-03				
5249.800	-79.420	3.586	-1701510.498	-9.357E-05	1.014E-03				
5259.800	-79.079	3.586	-1702303.589	-9.053E-05	1.147E-03				
5269.800	-78.632	3.586	-1703091.797	-9.357E-05	1.020E-03				
5279.800	-78.207	3.586	-1703877.197	-8.385E-05	1.053E-03				
5289.800	-77.796	3.586	-1704658.203	-9.418E-05	1.070E-03				
5299.800	-77.679	3.586	-1705435.303	-7.716E-05	1.120E-03				
5309.800	-77.297	3.586	-1706209.229	-1.003E-04	1.038E-03				
5319.800	-76.838	3.586	-1706979.370	-8.749E-05	1.089E-03				
5329.800	-76.369	3.586	-1707745.728	-8.506E-05	8.695E-04				
5339.800	-76.111	3.586	-1708508.301	-9.296E-05	1.052E-03				
5349.800	-75.627	3.586	-1709265.747	-9.053E-05	9.892E-04				
5359.800	-75.465	3.586	-1710022.461	-8.810E-05	1.069E-03				
5369.800	-75.229	3.586	-1710774.170	-9.296E-05	1.007E-03				
5379.800	-74.713	3.586	-1711523.560	-9.235E-05	9.801E-04				
5389.800	-74.453	3.586	-1712268.311	-9.479E-05	1.056E-03				
5399.800	-74.176	3.586	-1713010.986	-9.539E-05	1.086E-03				
5409.800	-73.340	3.586	-1713748.901	-8.810E-05	9.418E-04				
5419.800	-73.347	3.586	-1714482.788	-9.296E-05	1.019E-03				
5429.800	-73.102	3.586	-1715214.844	-8.749E-05	1.020E-03				
5439.800	-72.489	3.586	-1715943.115	-1.021E-04	1.053E-03				
5449.800	-72.268	3.586	-1716667.480	-7.960E-05	1.023E-03				
5459.800	-72.202	3.586	-1717388.550	-8.203E-05	1.004E-03				
5469.800	-71.701	3.586	-1718106.445	-8.446E-05	1.128E-03				
5479.800	-71.249	3.586	-1718819.946	-9.235E-05	1.139E-03				
5489.800	-70.885	3.586	-1719529.907	-8.932E-05	1.036E-03				
5499.800	-70.561	3.586	-1720237.793	-9.053E-05	1.071E-03				
5509.800	-70.440	3.586	-1720940.674	-1.051E-04	1.057E-03				
5519.800	-69.885	3.586	-1721641.968	-7.899E-05	1.113E-03				
5529.800	-69.727	3.586	-1722339.111	-1.003E-04	1.005E-03				
5539.800	-69.283	3.586	-1723033.813	-9.661E-05	1.068E-03				
5549.800	-68.855	3.586	-1723723.999	-7.473E-05	1.068E-03				
5559.800	-68.507	3.586	-1724411.011	-1.075E-04	1.095E-03				
5569.800	-68.269	3.586	-1725095.093	-8.142E-05	1.100E-03				
5579.800	-67.907	3.586	-1725776.367	-9.722E-05	1.069E-03				
5589.800	-67.491	3.586	-1726453.857	-7.230E-05	9.630E-04				
5599.800	-67.513	3.586	-1727127.808	-9.357E-05	1.041E-03				
5609.800	-66.784	3.586	-1727799.194	-9.722E-05	1.082E-03				
5617.000	-66.869	3.586	-1728281.250	-8.263E-05	1.006E-03				
5617.200	1.993	3.592	-1728280.884	-1.003E-04	1.102E-03				
5617.600	1.648	3.592	-1728280.151	-8.810E-05	1.011E-03				
5618.400	1.692	3.592	-1728278.687	-6.866E-05	1.138E-03				
5620.000	1.750	3.592	-1728275.757	-8.203E-05	1.010E-03				
5623.200	1.741	3.592	-1728269.897	-8.324E-05	1.049E-03				
5629.600	1.731	3.592	-1728258.179	-9.114E-05	1.111E-03				
5639.600	1.580	3.593	-1728239.990	-8.203E-05	9.515E-04				
5649.600	1.852	3.593	-1728222.534	-1.051E-04	1.090E-03				
5659.600	1.682	3.593	-1728204.712	-8.203E-05	1.104E-03				
5669.600	1.638	3.593	-1728186.523	-8.203E-05	1.085E-03				
5679.600	1.974	3.593	-1728168.335	-8.446E-05	9.442E-04				
5689.600	1.551	3.593	-1728150.024	-9.053E-05	1.082E-03				
5699.600	1.682	3.593	-1728131.714	-9.175E-05	1.044E-03				
5709.600	1.658	3.593	-1728113.770	-8.749E-05	1.110E-03				
5719.600	1.653	3.594	-1728095.581	-7.838E-05	9.910E-04				
5729.600	1.818	3.594	-1728077.881	-8.749E-05	1.121E-03				
5737.000	1.741	3.594	-1728064.575	-1.039E-04	1.060E-03				
5737.200	251.498	3.615	-1728014.282	-6.805E-05	1.068E-03				
5737.600	251.668	3.615	-1727913.696	-7.656E-05	1.081E-03				
5738.400	251.697	3.615	-1727712.524	-8.385E-05	1.019E-03				
5740.000	251.668	3.616	-1727309.570	-8.932E-05	1.058E-03				
5743.200	251.625	3.616	-1726504.272	-7.595E-05	1.071E-03				
5749.600	251.615	3.617	-1724894.409	-6.380E-05	1.099E-03				
5759.600	251.712	3.618	-1722379.028	-9.418E-05	1.099E-03				
5769.600	251.727	3.619	-1719863.647	-7.899E-05	1.089E-03				
5779.600	251.693	3.619	-1717347.656	-8.749E-05	9.308E-04				
5789.600	251.605	3.620	-1714831.909	-8.385E-05	1.095E-03				
5799.600	251.532	3.621	-1712316.895	-8.871E-05	1.066E-03				
5809.600	251.561	3.621	-1709802.002	-9.843E-05	1.007E-03				
5819.600	251.644	3.622	-1707287.354	-1.027E-04	1.086E-03				
5829.600	251.639	3.622	-1704772.217	-8.385E-05	1.077E-03				
5839.600	251.702	3.623	-1702256.592	-7.534E-05	1.121E-03				
5845.000	251.620	3.623	-1700898.438	-7.838E-05	1.128E-03				
5845.200	1.804	3.602	-1700898.071	-8.628E-05	1.042E-03				
5845.600	1.697	3.602	-1700897.339	-7.838E-05	1.003E-03				
5846.400	1.682	3.601	-1700895.874	-8.810E-05	1.043E-03				
5848.000	1.750	3.601	-1700892.944	-8.871E-05	1.145E-03				
5851.200	1.886	3.601	-1700887.085	-1.003E-04	1.041E-03				
5857.600	1.954	3.600	-1700875.366	-9.965E-05	9.357E-04				
5867.600	1.828	3.600	-1700857.056	-8.932E-05	1.063E-03				
5877.600	1.697	3.600	-1700838.867	-7.960E-05	1.107E-03				
5887.600	1.711	3.599	-1700820.679	-8.263E-05	1.089E-03				
5897.600	1.784	3.599	-1700802.612	-8.932E-05	1.055E-03				
5907.600	1.604	3.599	-1700784.302	-8.689E-05	1.017E-03				
5917.600	1.677	3.599	-1700766.235	-9.053E-05	1.179E-03				
5927.600	1.760	3.599	-1700748.291	-8.749E-05	1.042E-03				
5937.600	1.770	3.599	-1700730.103	-7.656E-05	1.046E-03				
5947.600	1.741	3.599	-1700712.158	-8.506E-05	9.752E-04				
5957.600	1.643	3.599	-1700693.970	-1.015E-04	1.030E-03				
5965.000	1.760	3.599	-1700680.542	-7.777E-05	1.047E-03				
5965.200	-248.126	3.578	-1700730.225	-9.053E-05	1.026E-03				
5965.600	-248.258	3.578	-1700829.590	-8.749E-05	9.910E-04				
5966.400	-248.445	3.577	-1701028.320	-1.033E-04	1.037E-03				
5968.000	-248.343	3.577	-1701425.781	-9.782E-05	1.116E-03				
5971.200	-248.306	3.576	-1702220.703	-9.782E-05	1.070E-03				
5977.600	-248.510	3.576	-1703810.547	-8.810E-05	1.006E-03				
5987.600	-248.386	3.575	-1706294.678	-8.324E-05	1.051E-03				
5997.600	-248.219	3.574	-1708778.809	-8.263E-05	1.023E-03				
6007.600	-248.399	3.573	-1711262.939	-8.810E-05	9.697E-04				
6017.600	-248.314	3.573	-1713747.070	-7.899E-05	1.012E-03				
6027.600	-248.411	3.572	-1716231.201	-8.689E-05	1.099E-03				
6037.600	-248.374	3.572	-1718715.332	-8.081E-05	1.110E-03				
6047.600	-248.343	3.571	-1721199.463	-8.324E-05	9.697E-04				
6057.600	-248.389	3.571	-1723683.594	-9.904E-05	1.006E-03				
6067.600	-248.408	3.570	-1726167.725	-8.385E-05	1.079E-03				
6073.000	-248.369	3.570	-1727509.155	-6.987E-05	1.092E-03				
6073.200	1.624	3.591	-1727508.789	-9.114E-05	1.033E-03				
6073.600	1.741	3.591	-1727508.057	-9.722E-05	1.004E-03				
6074.400	1.784	3.592	-1727506.592	-1.009E-04	1.009E-03				
6076.000	1.891	3.592	-1727503.662	-1.003E-04	1.028E-03				
6079.200	1.901	3.592	-1727497.803	-8.142E-05	1.119E-03				
6085.600	1.896	3.593	-1727486.084	-8.324E-05	1.134E-03				
6095.600	1.857	3.593	-1727467.773	-8.992E-05	9.892E-04				
6105.600	1.643	3.594	-1727449.463	-9.235E-05	1.041E-03				
6115.600	1.945	3.594	-1727431.152	-7.838E-05	1.017E-03				
6125.600	1.648	3.594	-1727412.842	-9.722E-05	1.112E-03				
6135.600	1.716	3.594	-1727394.531	-9.843E-05	9.764E-04				
6145.600	1.721	3.594	-1727376.221	-9.904E-05	1.095E-03				
6155.600	1.711	3.595	-1727358.398	-9.053E-05	9.910E-04				
6165.600	1.658	3.595	-1727340.454	-8.871E-05	1.016E-03				
6175.600	1.862	3.595	-1727322.266	-9.479E-05	1.002E-03				
6185.600	1.677	3.595	-1727304.077	-8.203E-05	1.136E-03				
6193.000	1.770	3.595	-1727290.771	-9.296E-05	1.042E-03				
6193.200	501.217	3.637	-1727190.552	-9.296E-05	1.071E-03				
6193.600	501.440	3.637	-1726989.868	-9.235E-05	1.046E-03				
6194.400	501.533	3.638	-1726588.501	-8.871E-05	1.052E-03				
6196.000	501.683	3.639	-1725785.767	-8.142E-05	1.112E-03				
6199.200	501.533	3.640	-1724180.298	-9.722E-05	1.035E-03				
6205.600	501.465	3.641	-1720969.482	-9.539E-05	1.150E-03				
6215.600	501.572	3.643	-1715952.393	-9.722E-05	1.084E-03				
6225.600	501.591	3.645	-1710935.303	-8.142E-05	1.082E-03				
6235.600	501.494	3.646	-1705918.213	-9.600E-05	1.052E-03				
6245.600	501.581	3.647	-1700901.123	-9.114E-05	1.017E-03				
6247.000	501.718	3.647	-1700198.730	-8.628E-05	1.121E-03				
6247.200	2.091	3.605	-1700198.364	-8.749E-05	1.021E-03				
6247.600	1.770	3.605	-1700197.632	-8.749E-05	1.067E-03				
6248.400	1.590	3.605	-1700196.167	-8.749E-05	1.042E-03				
6250.000	1.585	3.604	-1700193.237	-9.661E-05	1.042E-03				
6253.200	1.673	3.603	-1700187.378	-8.142E-05	1.064E-03				
6259.600	1.658	3.602	-1700175.781	-9.053E-05	1.029E-03				
6269.600	1.609	3.602	-1700158.203	-8.567E-05	1.109E-03				
6279.600	1.634	3.601	-1700140.259	-9.235E-05	1.030E-03				
6289.600	1.619	3.601	-1700122.192	-8.020E-05	1.085E-03				
6299.600	1.823	3.600	-1700104.004	-9.235E-05	1.004E-03				
6309.600	1.823	3.600	-1700085.693	-9.053E-05	1.102E-03				
6319.600	1.561	3.600	-1700067.505	-8.749E-05	9.995E-04				
6329.600	1.775	3.600	-1700049.194	-8.385E-05	9.855E-04				
6339.600	1.750	3.600	-1700030.884	-7.899E-05	1.095E-03				
6349.600	1.702	3.600	-1700012.573	-9.175E-05	1.037E-03				
6359.600	1.614	3.600	-1699994.629	-9.114E-05	1.038E-03				
6367.000	1.736	3.600	-1699981.079	-7.473E-05	1.068E-03				
6367.200	-497.932	3.558	-1700080.688	-1.033E-04	1.007E-03				
6367.600	-498.244	3.558	-1700279.907	-7.656E-05	1.085E-03				
6368.400	-498.253	3.557	-1700678.345	-9.965E-05	1.004E-03				
6370.000	-498.205	3.556	-1701475.342	-7.291E-05	1.032E-03				
6373.200	-498.222	3.555	-1703069.458	-9.904E-05	1.029E-03				
6379.600	-498.210	3.554	-1706258.179	-1.009E-04	1.068E-03				
6389.600	-498.229	3.552	-1711241.699	-8.385E-05	1.050E-03				
6399.600	-498.538	3.550	-1716224.487	-9.661E-05	1.038E-03				
6409.600	-498.280	3.549	-1721206.543	-1.009E-04	1.095E-03				
6419.600	-498.407	3.548	-1726189.697	-6.987E-05	1.099E-03				
6421.000	-498.341	3.548	-1726887.451	-6.623E-05	1.144E-03				
6421.200	1.405	3.590	-1726887.207	-9.114E-05	1.020E-03				
6421.600	1.707	3.590	-1726886.475	-8.871E-05	1.040E-03				
6422.400	1.711	3.590	-1726885.010	-8.810E-05	1.010E-03				
6424.000	1.711	3.591	-1726882.080	-8.871E-05	9.770E-04				
6427.200	1.658	3.592	-1726876.221	-8.628E-05	1.043E-03				
6433.600	1.814	3.593	-1726864.502	-1.021E-04	1.075E-03				
6443.600	1.682	3.593	-1726846.191	-1.094E-04	9.886E-04				
6453.600	1.745	3.594	-1726827.881	-9.296E-05	1.055E-03				
6463.600	1.673	3.594	-1726809.692	-8.567E-05	1.044E-03				
6473.600	1.818	3.595	-1726791.382	-8.992E-05	1.157E-03				
6483.600	1.648	3.595	-1726773.071	-8.871E-05	1.011E-03				
6493.600	1.609	3.595	-1726755.005	-9.114E-05	1.082E-03				
6503.600	1.755	3.595	-1726736.694	-8.871E-05	9.794E-04				
6513.600	1.814	3.595	-1726718.506	-7.899E-05	1.055E-03				
6523.600	1.765	3.596	-1726700.439	-8.324E-05	9.612E-04				
6533.600	1.658	3.596	-1726682.983	-1.015E-04	1.104E-03				
6541.000	1.794	3.596	-1726670.166	-8.628E-05	1.022E-03				
6541.200	1250.168	3.701	-1726420.166	-9.418E-05	1.029E-03				
6541.600	1251.039	3.702	-1725919.800	-9.357E-05	1.165E-03				
6542.400	1251.170	3.703	-1724918.823	-9.418E-05	1.075E-03				
6544.000	1251.433	3.705	-1722916.870	-1.021E-04	1.001E-03				
6546.400	1251.462	3.707	-1719913.696	-8.992E-05	9.904E-04				
6549.400	1251.559	3.709	-1716159.302	-9.782E-05	1.003E-03				
6552.600	1251.428	3.711	-1712155.396	-9.296E-05	1.038E-03				
6556.400	1251.505	3.713	-1707400.146	-7.352E-05	1.057E-03				
6560.800	1251.321	3.715	-1701894.409	-1.094E-04	9.551E-04				
6562.600	1251.496	3.715	-1699642.212	-8.142E-05	1.051E-03				
6562.800	2.562	3.611	-1699641.724	-8.020E-05	1.028E-03				
6563.200	1.857	3.610	-1699640.991	-8.932E-05	9.612E-04				
6564.000	1.673	3.609	-1699639.526	-9.782E-05	9.728E-04				
6565.600	1.575	3.608	-1699636.597	-8.810E-05	1.018E-03				
6568.800	1.687	3.606	-1699630.737	-7.473E-05	1.127E-03				
6575.200	1.585	3.605	-1699619.873	-9.235E-05	1.004E-03				
6585.200	1.848	3.603	-1699602.173	-1.003E-04	1.116E-03				
6595.200	1.833	3.602	-1699583.984	-8.567E-05	1.032E-03				
6605.200	1.745	3.602	-1699565.918	-8.992E-05	1.133E-03				
6615.200	1.556	3.601	-1699547.852	-9.479E-05	1.007E-03				
6625.200	1.614	3.601	-1699530.029	-9.539E-05	1.006E-03				
6635.200	1.590	3.601	-1699512.085	-9.235E-05	9.934E-04				
6645.200	1.614	3.601	-1699494.141	-9.479E-05	1.082E-03				
6655.200	1.551	3.601	-1699476.196	-9.296E-05	1.072E-03				
6665.200	1.750	3.601	-1699458.252	-9.600E-05	1.145E-03				
6675.200	1.629	3.601	-1699440.308	-8.992E-05	9.952E-04				
6682.600	1.643	3.601	-1699427.124	-1.063E-04	1.084E-03				
6682.800	-1247.285	3.495	-1699676.636	-8.506E-05	1.123E-03				
6683.200	-1248.037	3.495	-1700175.781	-8.749E-05	1.002E-03				
6684.000	-1248.187	3.493	-1701174.316	-7.716E-05	1.068E-03				
6685.600	-1248.326	3.491	-1703171.387	-9.600E-05	1.061E-03				
6688.000	-1248.348	3.489	-1706167.236	-9.418E-05	1.065E-03				
6691.000	-1248.297	3.487	-1709911.743	-7.777E-05	1.080E-03				
6694.200	-1248.318	3.485	-1713906.006	-8.689E-05	1.033E-03				
6698.200	-1248.425	3.483	-1718898.804	-8.567E-05	9.898E-04				
6702.800	-1248.202	3.481	-1724640.503	-9.175E-05	1.080E-03				
6704.200	-1248.204	3.481	-1726387.939	-8.749E-05	1.004E-03				
6704.400	0.720	3.586	-1726387.817	-9.782E-05	1.030E-03				
6704.800	1.347	3.587	-1726387.329	-9.235E-05	1.094E-03				
6705.600	1.604	3.587	-1726385.986	-8.992E-05	1.102E-03				
6707.200	1.677	3.589	-1726383.179	-9.661E-05	1.049E-03				
6710.400	1.600	3.590	-1726377.319	-9.782E-05	1.067E-03				
6716.800	1.799	3.592	-1726365.601	-7.838E-05	1.010E-03				
6726.800	1.590	3.593	-1726347.412	-8.506E-05	1.028E-03				
6736.800	1.585	3.594	-1726329.102	-9.296E-05	1.090E-03				
6746.800	1.828	3.595	-1726310.791	-9.114E-05	1.107E-03				
6756.800	1.702	3.595	-1726292.725	-1.239E-04	1.139E-03				
6766.800	1.770	3.595	-1726274.902	-9.722E-05	1.122E-03				
6776.800	1.711	3.595	-1726256.836	-8.871E-05	1.013E-03				
6786.800	1.580	3.596	-1726238.770	-8.689E-05	1.035E-03				
6796.800	1.575	3.596	-1726220.703	-5.711E-05	1.143E-03				
6806.800	1.711	3.596	-1726202.393	-9.053E-05	1.038E-03				
6816.800	1.702	3.596	-1726184.326	-8.932E-05	1.035E-03				
6824.200	1.741	3.596	-1726170.898	-9.661E-05	1.020E-03				
6824.400	2498.514	3.807	-1725671.143	-8.992E-05	1.051E-03				
6824.800	2500.692	3.808	-1724671.021	-9.539E-05	1.060E-03				
6825.400	2501.110	3.810	-1723170.410	-9.175E-05	9.503E-04				
6826.200	2501.236	3.812	-1721169.434	-1.003E-04	1.029E-03				
6827.200	2501.246	3.815	-1718668.213	-9.722E-05	1.109E-03				
6828.400	2501.295	3.817	-1715666.748	-7.291E-05	1.115E-03				
6829.800	2501.538	3.819	-1712164.917	-8.932E-05	9.636E-04				
6831.200	2501.494	3.821	-1708663.208	-1.106E-04	1.141E-03				
6832.800	2501.290	3.823	-1704661.011	-9.479E-05	1.065E-03				
6834.600	2501.441	3.825	-1700158.691	-1.148E-04	9.965E-04				
6835.000	2501.513	3.826	-1699158.203	-8.810E-05	1.024E-03				
6835.200	3.851	3.615	-1699157.471	-1.075E-04	1.120E-03				
6835.600	2.202	3.614	-1699156.494	-7.109E-05	1.040E-03				
6836.400	1.969	3.612	-1699155.029	-9.904E-05	1.023E-03				
6838.000	1.716	3.610	-1699152.100	-9.904E-05	1.094E-03				
6841.000	1.707	3.608	-1699146.606	-7.716E-05	1.080E-03				
6844.200	1.794	3.607	-1699140.747	-9.175E-05	1.126E-03				
6850.600	1.619	3.605	-1699129.150	-8.871E-05	1.032E-03				
6860.600	1.765	3.604	-1699111.572	-8.081E-05	1.068E-03				
6870.600	1.692	3.603	-1699093.262	-1.088E-04	1.155E-03				
6880.600	1.721	3.602	-1699075.439	-9.357E-05	1.081E-03				
6890.600	1.483	3.602	-1699058.105	-9.114E-05	1.047E-03				
6900.600	1.697	3.602	-1699041.016	-8.992E-05	1.094E-03				
6910.600	1.624	3.601	-1699023.071	-8.446E-05	1.170E-03				
6920.600	1.415	3.601	-1699005.005	-8.628E-05	1.114E-03				
6930.600	1.745	3.601	-1698988.037	-8.871E-05	9.880E-04				
6940.600	1.925	3.601	-1698970.581	-8.020E-05	1.029E-03				
6950.600	1.731	3.601	-1698952.759	-7.899E-05	1.063E-03				
6955.000	1.478	3.601	-1698945.068	-8.506E-05	1.061E-03				
6955.200	-2495.820	3.390	-1699444.214	-7.170E-05	1.036E-03				
6955.600	-2497.459	3.388	-1700443.115	-8.992E-05	1.015E-03				
6956.200	-2497.852	3.386	-1701941.650	-1.021E-04	9.813E-04				
6957.000	-2497.918	3.384	-1703940.063	-6.744E-05	1.050E-03				
6958.000	-2498.030	3.382	-1706438.232	-8.506E-05	1.106E-03				
6959.200	-2498.127	3.380	-1709436.035	-7.413E-05	1.057E-03				
6960.600	-2498.302	3.378	-1712933.472	-7.230E-05	1.061E-03				
6962.000	-2498.125	3.376	-1716430.908	-1.015E-04	1.074E-03				
6963.600	-2498.244	3.374	-1720427.979	-9.479E-05	1.119E-03				
6965.400	-2498.360	3.372	-1724924.683	-8.142E-05	1.094E-03				
6965.800	-2498.317	3.371	-1725923.950	-8.689E-05	1.117E-03				
6966.000	-0.238	3.582	-1725923.950	-9.722E-05	1.030E-03				
6966.400	1.036	3.583	-1725923.584	-9.175E-05	1.009E-03				
6967.200	1.327	3.585	-1725922.485	-1.069E-04	9.940E-04				
6968.800	1.580	3.587	-1725920.288	-1.167E-04	1.057E-03				
6971.800	1.779	3.589	-1725915.283	-1.094E-04	1.055E-03				
6975.000	1.677	3.590	-1725910.156	-9.661E-05	1.015E-03				
6981.400	1.527	3.592	-1725898.438	-9.904E-05	9.946E-04				
6991.400	1.687	3.593	-1725880.249	-1.039E-04	1.169E-03				
7001.400	1.614	3.594	-1725861.938	-9.235E-05	9.636E-04				
7011.400	1.760	3.595	-1725843.750	-8.385E-05	1.093E-03				
7021.400	1.570	3.595	-1725825.562	-9.722E-05	9.946E-04				
7031.400	1.653	3.596	-1725807.739	-8.203E-05	1.144E-03				
7041.400	1.643	3.596	-1725789.917	-8.932E-05	1.071E-03				
7051.400	1.794	3.596	-1725771.606	-9.965E-05	1.124E-03				
7061.400	1.823	3.596	-1725753.296	-1.045E-04	9.983E-04				
7071.400	1.721	3.596	-1725734.985	-9.600E-05	1.057E-03				
7081.400	1.692	3.596	-1725716.675	-1.021E-04	1.004E-03				
7085.800	1.668	3.597	-1725708.618	-9.843E-05	1.128E-03				
7086.000	4972.095	4.018	-1724714.233	-1.003E-04	1.026E-03				
7086.400	4973.316	4.021	-1722724.854	-1.075E-04	1.032E-03				
7086.800	4972.771	4.023	-1720735.718	-1.009E-04	1.015E-03				
7087.200	4972.134	4.026	-1718746.826	-1.021E-04	1.023E-03				
7087.600	4971.541	4.028	-1716758.179	-1.142E-04	1.102E-03				
7088.200	4971.016	4.031	-1713775.391	-1.015E-04	1.035E-03				
7088.800	4970.671	4.033	-1710792.969	-1.063E-04	1.122E-03				
7089.400	4970.398	4.036	-1707810.547	-1.094E-04	1.047E-03				
7090.000	4970.374	4.038	-1704828.491	-9.965E-05	1.040E-03				
7090.600	4970.088	4.040	-1701846.436	-9.418E-05	1.113E-03				
7091.200	4969.985	4.042	-1698864.380	-1.003E-04	9.734E-04				
7091.400	6.043	3.621	-1698863.159	-8.263E-05	1.176E-03				
7091.800	2.873	3.618	-1698861.816	-1.094E-04	1.063E-03				
7092.400	2.198	3.616	-1698860.352	-9.296E-05	9.977E-04				
7093.200	1.959	3.614	-1698858.887	-9.418E-05	1.048E-03				
7094.800	1.882	3.612	-1698855.957	-8.446E-05	1.002E-03				
7097.200	1.852	3.610	-1698851.563	-9.904E-05	1.102E-03				
7100.400	1.789	3.608	-1698845.703	-7.838E-05	1.011E-03				
7106.600	1.799	3.606	-1698834.351	-9.904E-05	1.018E-03				
7113.000	1.838	3.605	-1698822.632	-9.053E-05	1.106E-03				
7123.000	1.896	3.604	-1698804.321	-8.871E-05	1.023E-03				
7133.000	1.711	3.603	-1698786.133	-1.003E-04	9.782E-04				
7143.000	1.770	3.602	-1698767.822	-1.027E-04	1.103E-03				
7153.000	1.585	3.602	-1698749.512	-1.057E-04	9.564E-04				
7163.000	1.653	3.602	-1698731.323	-1.063E-04	1.036E-03				
7173.000	1.843	3.602	-1698713.013	-8.749E-05	1.071E-03				
7183.000	1.673	3.602	-1698694.702	-8.932E-05	1.130E-03				
7193.000	1.551	3.602	-1698676.392	-1.015E-04	1.007E-03				
7203.000	1.911	3.601	-1698658.325	-8.932E-05	1.100E-03				
7211.200	1.570	3.601	-1698643.311	-1.039E-04	9.527E-04				
7211.400	-4955.083	3.182	-1699634.277	-7.291E-05	1.167E-03				
7211.800	-4956.116	3.179	-1701616.821	-7.230E-05	1.068E-03				
7212.200	-4955.387	3.177	-1703598.999	-1.003E-04	1.071E-03				
7212.600	-4954.765	3.174	-1705581.055	-7.413E-05	1.142E-03				
7213.000	-4954.011	3.172	-1707562.744	-9.296E-05	1.058E-03				
7213.400	-4953.537	3.170	-1709544.189	-7.716E-05	1.075E-03				
7214.000	-4952.861	3.167	-1712515.991	-9.357E-05	1.043E-03				
7214.600	-4952.314	3.165	-1715487.427	-1.033E-04	1.044E-03				
7215.200	-4951.721	3.162	-1718458.618	-7.777E-05	1.084E-03				
7215.800	-4951.199	3.160	-1721429.443	-9.235E-05	1.054E-03				
7216.400	-4950.469	3.158	-1724399.902	-8.506E-05	1.117E-03				
7216.600	-4950.448	3.157	-1725390.015	-9.235E-05	1.102E-03				
7216.800	-2.027	3.577	-1725390.381	-9.843E-05	1.033E-03				
7217.200	0.622	3.580	-1725390.259	-7.595E-05	1.100E-03				
7217.800	1.322	3.582	-1725389.526	-8.142E-05	1.067E-03				
7218.600	1.366	3.584	-1725388.550	-9.904E-05	1.072E-03				
7220.200	1.604	3.586	-1725385.742	-7.534E-05	9.764E-04				
7222.600	1.556	3.588	-1725381.592	-9.539E-05	1.023E-03				
7225.800	1.648	3.590	-1725375.977	-1.021E-04	1.046E-03				
7232.000	1.745	3.592	-1725364.868	-9.053E-05	9.892E-04				
7238.400	1.814	3.593	-1725353.149	-8.506E-05	1.045E-03				
7248.400	1.765	3.594	-1725334.961	-1.185E-04	1.011E-03				
7258.400	1.507	3.595	-1725316.772	-8.932E-05	1.121E-03				
7268.400	1.629	3.596	-1725298.462	-1.003E-04	1.064E-03				
7278.400	1.653	3.596	-1725280.518	-7.777E-05	1.153E-03				
7288.400	1.930	3.596	-1725262.207	-9.782E-05	1.021E-03				
7298.400	1.940	3.596	-1725243.896	-8.689E-05	1.001E-03				
7308.400	1.663	3.597	-1725225.586	-8.324E-05	9.248E-04				
7318.400	1.867	3.597	-1725207.275	-8.871E-05	9.959E-04				
7328.400	1.624	3.597	-1725189.331	-1.009E-04	1.012E-03				
7336.600	1.653	3.597	-1725174.805	-7.656E-05	1.147E-03				
