time /s	I /mA	E /V	Q /mC	An In 1	An In 2	Rs	Cs	Zab	Phase
0.200	-498.321	3.561	-99.664	-7.777E-05	9.873E-04				
0.600	-498.304	3.561	-298.931	-7.534E-05	1.001E-03				
1.400	-498.115	3.560	-697.497	-6.076E-05	1.069E-03				
3.000	-498.168	3.559	-1494.639	-8.567E-05	1.136E-03				
6.200	-498.100	3.558	-3088.876	-6.015E-05	1.173E-03				
12.600	-498.159	3.557	-6277.297	-9.661E-05	1.138E-03				
22.600	-498.283	3.555	-11258.872	-7.534E-05	1.188E-03				
32.600	-498.100	3.553	-16240.913	-6.501E-05	1.055E-03				
42.600	-498.161	3.552	-21222.000	-8.932E-05	1.054E-03				
52.600	-498.088	3.551	-26203.644	-8.810E-05	1.145E-03				
62.600	-498.210	3.550	-31185.177	-8.506E-05	1.169E-03				
72.600	-498.214	3.549	-36166.553	-8.324E-05	1.067E-03				
82.600	-498.163	3.548	-41148.262	-7.048E-05	1.072E-03				
92.600	-498.253	3.547	-46130.585	-8.020E-05	1.089E-03				
102.600	-498.098	3.546	-51113.144	-8.628E-05	1.041E-03				
112.600	-498.261	3.546	-56095.787	-7.838E-05	1.196E-03				
122.600	-498.127	3.545	-61078.106	-6.927E-05	1.044E-03				
132.600	-498.229	3.544	-66060.127	-9.479E-05	1.150E-03				
142.600	-498.197	3.543	-71042.107	-6.441E-05	1.111E-03				
152.600	-498.115	3.543	-76024.124	-8.385E-05	9.558E-04				
162.600	-498.108	3.542	-81005.051	-7.109E-05	1.069E-03				
172.600	-498.098	3.541	-85985.847	-6.744E-05	1.088E-03				
182.600	-498.234	3.541	-90967.621	-8.992E-05	1.020E-03				
192.600	-498.076	3.540	-95949.112	-5.225E-05	1.378E-03				
202.600	-498.142	3.539	-100930.672	-6.562E-05	1.403E-03				
212.600	-498.117	3.539	-105912.514	-5.529E-05	1.169E-03				
222.600	-498.039	3.538	-110894.058	-1.021E-04	1.118E-03				
232.600	-498.278	3.537	-115875.992	-8.567E-05	9.825E-04				
242.600	-498.088	3.537	-120858.513	-8.324E-05	1.185E-03				
252.600	-498.251	3.536	-125840.797	-9.418E-05	1.052E-03				
262.600	-498.261	3.535	-130822.937	-7.595E-05	1.086E-03				
272.600	-498.134	3.535	-135805.695	-8.871E-05	9.801E-04				
282.600	-498.071	3.534	-140787.476	-7.109E-05	1.097E-03				
292.600	-498.091	3.534	-145769.394	-7.413E-05	1.081E-03				
302.600	-498.214	3.533	-150751.465	-7.899E-05	1.034E-03				
312.600	-498.268	3.533	-155733.673	-7.838E-05	1.153E-03				
322.600	-498.190	3.532	-160715.744	-8.081E-05	9.831E-04				
332.600	-498.372	3.532	-165697.556	-7.899E-05	1.047E-03				
342.600	-498.193	3.531	-170679.459	-6.927E-05	1.085E-03				
352.600	-498.120	3.530	-175661.423	-8.263E-05	1.033E-03				
362.600	-498.120	3.530	-180643.433	-7.656E-05	1.012E-03				
372.600	-498.319	3.529	-185625.885	-7.534E-05	1.105E-03				
382.600	-498.120	3.529	-190608.627	-7.473E-05	1.075E-03				
392.600	-498.251	3.528	-195590.866	-8.142E-05	1.015E-03				
402.600	-498.302	3.528	-200573.227	-9.539E-05	1.078E-03				
412.600	-498.278	3.527	-205555.801	-8.628E-05	1.015E-03				
422.600	-498.117	3.527	-210538.483	-6.137E-05	1.082E-03				
432.600	-498.207	3.526	-215521.454	-7.716E-05	1.074E-03				
442.600	-498.385	3.526	-220504.852	-9.175E-05	1.104E-03				
452.600	-498.236	3.525	-225488.480	-8.203E-05	1.031E-03				
462.600	-498.244	3.525	-230470.932	-7.777E-05	1.086E-03				
472.600	-498.285	3.524	-235453.705	-9.175E-05	1.068E-03				
482.600	-498.372	3.524	-240436.874	-7.960E-05	1.021E-03				
492.600	-498.404	3.523	-245419.952	-7.656E-05	1.105E-03				
502.600	-498.207	3.523	-250402.390	-8.810E-05	1.068E-03				
512.600	-498.314	3.522	-255385.162	-8.567E-05	1.097E-03				
522.600	-498.183	3.522	-260367.889	-9.782E-05	1.152E-03				
532.600	-498.368	3.521	-265350.616	-8.689E-05	1.085E-03				
542.600	-498.195	3.521	-270333.435	-7.109E-05	1.131E-03				
552.600	-498.195	3.520	-275316.254	-9.600E-05	1.087E-03				
562.600	-498.232	3.520	-280298.859	-9.600E-05	1.094E-03				
572.600	-498.455	3.519	-285281.525	-8.446E-05	1.040E-03				
582.600	-498.375	3.519	-290263.977	-5.711E-05	1.109E-03				
592.600	-498.210	3.518	-295246.368	-8.932E-05	1.031E-03				
602.600	-498.414	3.518	-300228.363	-9.114E-05	1.057E-03				
612.600	-498.197	3.518	-305210.724	-8.567E-05	1.162E-03				
622.600	-498.249	3.517	-310193.237	-7.534E-05	1.123E-03				
632.600	-498.317	3.517	-315175.568	-7.838E-05	1.042E-03				
642.600	-498.159	3.516	-320157.928	-8.081E-05	1.036E-03				
652.600	-498.377	3.516	-325140.259	-9.418E-05	1.048E-03				
662.600	-498.178	3.515	-330122.894	-7.838E-05	1.013E-03				
672.600	-498.098	3.515	-335105.164	-9.904E-05	1.195E-03				
682.600	-498.241	3.514	-340087.158	-7.473E-05	1.023E-03				
692.600	-498.112	3.514	-345068.909	-7.716E-05	1.127E-03				
702.600	-498.317	3.513	-350050.873	-7.413E-05	1.004E-03				
712.600	-498.319	3.513	-355033.264	-8.749E-05	1.033E-03				
722.600	-498.309	3.512	-360015.656	-9.114E-05	1.089E-03				
732.600	-498.297	3.512	-364998.657	-9.965E-05	1.094E-03				
742.600	-498.402	3.511	-369982.178	-8.749E-05	1.071E-03				
752.600	-498.188	3.511	-374965.668	-8.385E-05	1.068E-03				
762.600	-498.202	3.510	-379949.005	-7.352E-05	1.205E-03				
772.600	-498.326	3.510	-384932.159	-8.506E-05	1.090E-03				
782.600	-498.448	3.509	-389915.100	-8.810E-05	1.080E-03				
792.600	-498.314	3.509	-394898.346	-8.932E-05	1.098E-03				
802.600	-498.190	3.509	-399881.104	-7.291E-05	1.023E-03				
812.600	-498.142	3.508	-404863.312	-7.838E-05	1.082E-03				
822.600	-498.139	3.508	-409845.398	-8.081E-05	1.153E-03				
832.600	-498.295	3.507	-414827.179	-7.656E-05	1.070E-03				
842.600	-498.368	3.507	-419809.296	-7.048E-05	1.085E-03				
852.600	-498.324	3.506	-424792.175	-8.871E-05	1.023E-03				
862.600	-498.477	3.506	-429775.421	-5.954E-05	1.091E-03				
872.600	-498.372	3.505	-434758.972	-9.114E-05	1.054E-03				
882.600	-498.341	3.505	-439742.249	-1.021E-04	9.813E-04				
892.600	-498.241	3.504	-444725.800	-7.291E-05	1.113E-03				
902.600	-498.336	3.504	-449708.984	-8.628E-05	1.068E-03				
912.600	-498.431	3.503	-454692.871	-8.932E-05	1.168E-03				
922.600	-498.363	3.503	-459676.880	-7.473E-05	1.043E-03				
932.600	-498.319	3.502	-464660.645	-8.081E-05	1.084E-03				
942.600	-498.360	3.502	-469644.287	-8.081E-05	9.685E-04				
952.600	-498.419	3.501	-474627.502	-7.048E-05	1.137E-03				
962.600	-498.263	3.501	-479610.291	-8.020E-05	1.033E-03				
972.600	-498.319	3.501	-484593.262	-7.473E-05	1.052E-03				
982.600	-498.266	3.500	-489575.958	-8.324E-05	1.152E-03				
992.600	-498.200	3.500	-494558.380	-8.446E-05	1.044E-03				
1002.600	-498.283	3.499	-499541.107	-9.661E-05	9.946E-04				
1012.600	-498.433	3.499	-504524.353	-6.927E-05	9.551E-04				
1022.600	-498.351	3.498	-509507.050	-5.894E-05	9.697E-04				
1032.600	-498.331	3.498	-514489.685	-8.446E-05	1.129E-03				
1042.600	-498.270	3.497	-519472.778	-7.291E-05	1.082E-03				
1052.600	-498.312	3.497	-524456.055	-8.749E-05	1.073E-03				
1062.600	-498.195	3.496	-529439.392	-7.960E-05	1.168E-03				
1072.600	-498.234	3.496	-534422.607	-5.954E-05	1.058E-03				
1082.600	-498.251	3.495	-539405.579	-8.932E-05	1.116E-03				
1092.600	-498.317	3.495	-544388.611	-7.899E-05	9.624E-04				
1102.600	-498.324	3.494	-549372.070	-7.899E-05	1.174E-03				
1112.600	-498.404	3.494	-554355.347	-8.020E-05	9.898E-04				
1122.600	-498.258	3.493	-559338.989	-8.628E-05	1.053E-03				
1132.600	-498.329	3.493	-564322.083	-9.539E-05	8.549E-04				
1142.600	-498.416	3.492	-569304.810	-8.020E-05	1.092E-03				
1152.600	-498.185	3.492	-574287.048	-8.810E-05	9.989E-04				
1162.600	-498.365	3.491	-579270.020	-8.385E-05	1.112E-03				
1172.600	-498.531	3.491	-584253.113	-7.716E-05	1.114E-03				
1182.600	-498.232	3.490	-589235.962	-7.656E-05	1.103E-03				
1192.600	-498.083	3.490	-594218.628	-7.170E-05	1.010E-03				
1202.600	-498.207	3.490	-599201.416	-8.142E-05	9.491E-04				
1212.600	-498.324	3.489	-604184.265	-8.932E-05	1.181E-03				
1222.600	-498.205	3.489	-609166.809	-8.567E-05	1.069E-03				
1232.600	-498.348	3.488	-614148.926	-7.656E-05	1.128E-03				
1242.600	-498.144	3.488	-619129.944	-9.418E-05	9.849E-04				
1252.600	-498.176	3.487	-624111.206	-7.413E-05	1.091E-03				
1262.600	-498.197	3.487	-629093.262	-8.385E-05	1.032E-03				
1272.600	-498.069	3.486	-634074.890	-8.506E-05	1.085E-03				
1282.600	-498.227	3.486	-639056.152	-7.595E-05	1.077E-03				
1292.600	-498.083	3.485	-644038.025	-8.020E-05	1.109E-03				
1302.600	-498.205	3.485	-649019.409	-8.506E-05	1.075E-03				
1312.600	-498.190	3.484	-654000.061	-9.600E-05	1.081E-03				
1322.600	-497.957	3.484	-658981.689	-6.197E-05	1.221E-03				
1332.600	-498.064	3.483	-663962.891	-9.418E-05	1.088E-03				
1342.600	-498.178	3.483	-668944.946	-9.661E-05	1.074E-03				
1352.600	-498.105	3.482	-673927.185	-8.871E-05	1.068E-03				
1362.600	-498.134	3.482	-678909.363	-8.020E-05	1.179E-03				
1372.600	-498.207	3.481	-683891.724	-8.628E-05	9.904E-04				
1382.600	-498.129	3.481	-688873.474	-8.628E-05	1.097E-03				
1392.600	-498.151	3.480	-693855.225	-7.899E-05	1.054E-03				
1402.600	-498.176	3.480	-698836.670	-1.021E-04	1.150E-03				
1412.600	-498.137	3.479	-703818.787	-7.230E-05	9.497E-04				
1422.600	-498.256	3.479	-708800.476	-9.114E-05	1.096E-03				
1432.600	-498.064	3.478	-713781.494	-9.539E-05	1.170E-03				
1442.600	-498.061	3.478	-718763.672	-9.782E-05	1.026E-03				
1452.600	-498.074	3.477	-723745.544	-8.689E-05	1.026E-03				
1462.600	-498.129	3.477	-728726.929	-9.904E-05	1.057E-03				
1472.600	-498.125	3.476	-733708.008	-8.628E-05	1.130E-03				
1482.600	-498.163	3.476	-738689.392	-9.418E-05	1.070E-03				
1492.600	-498.144	3.475	-743670.593	-6.927E-05	1.095E-03				
1502.600	-498.253	3.474	-748651.611	-7.352E-05	1.082E-03				
1512.600	-498.178	3.474	-753633.484	-6.441E-05	1.148E-03				
1522.600	-498.071	3.473	-758614.990	-1.009E-04	8.555E-04				
1532.600	-498.212	3.473	-763596.375	-7.960E-05	1.062E-03				
1542.600	-498.178	3.472	-768578.125	-9.722E-05	9.922E-04				
1552.600	-498.338	3.472	-773559.326	-8.446E-05	1.156E-03				
1562.600	-498.146	3.471	-778541.199	-8.932E-05	1.072E-03				
1572.600	-498.268	3.471	-783522.949	-9.418E-05	9.910E-04				
1582.600	-498.013	3.470	-788504.150	-7.716E-05	1.139E-03				
1592.600	-498.207	3.470	-793486.267	-7.230E-05	1.050E-03				
1602.600	-498.214	3.469	-798468.018	-8.932E-05	1.105E-03				
1612.600	-498.103	3.469	-803449.829	-8.871E-05	1.033E-03				
1622.600	-498.052	3.468	-808431.152	-8.385E-05	1.088E-03				
1632.600	-498.081	3.468	-813412.415	-8.020E-05	1.078E-03				
1642.600	-498.117	3.467	-818393.677	-1.003E-04	1.180E-03				
1652.600	-498.217	3.467	-823376.404	-9.418E-05	1.018E-03				
1662.600	-498.331	3.466	-828358.398	-8.263E-05	1.094E-03				
1672.600	-498.188	3.466	-833340.576	-8.142E-05	1.038E-03				
1682.600	-498.076	3.465	-838321.655	-8.081E-05	1.140E-03				
1692.600	-498.151	3.464	-843302.307	-8.263E-05	1.046E-03				
1702.600	-498.197	3.464	-848283.203	-7.473E-05	1.102E-03				
1712.600	-498.001	3.463	-853264.526	-9.114E-05	1.040E-03				
1722.600	-498.214	3.463	-858245.605	-7.656E-05	9.922E-04				
1732.600	-498.103	3.462	-863226.868	-7.716E-05	1.151E-03				
1742.600	-498.168	3.462	-868208.008	-7.716E-05	1.098E-03				
1752.600	-498.244	3.461	-873189.514	-8.385E-05	1.038E-03				
1762.600	-498.253	3.461	-878171.570	-7.899E-05	9.636E-04				
1772.600	-498.249	3.460	-883153.259	-8.263E-05	1.114E-03				
1782.600	-498.241	3.459	-888135.437	-7.473E-05	9.934E-04				
1792.600	-498.232	3.459	-893116.821	-6.562E-05	1.069E-03				
1802.600	-498.095	3.458	-898098.022	-8.203E-05	1.020E-03				
1812.600	-498.049	3.458	-903079.163	-7.960E-05	1.100E-03				
1822.600	-498.173	3.457	-908060.181	-7.656E-05	1.046E-03				
1832.600	-498.185	3.457	-913041.870	-8.506E-05	1.061E-03				
1842.600	-497.911	3.456	-918022.827	-9.661E-05	1.088E-03				
1852.600	-498.195	3.455	-923004.333	-6.805E-05	1.140E-03				
1862.600	-498.156	3.455	-927985.535	-7.960E-05	1.078E-03				
1872.600	-498.222	3.454	-932966.614	-6.684E-05	1.071E-03				
1882.600	-498.144	3.454	-937947.632	-8.203E-05	1.083E-03				
1892.600	-498.013	3.453	-942928.345	-8.749E-05	1.043E-03				
1902.600	-498.139	3.453	-947908.936	-8.567E-05	1.145E-03				
1912.600	-498.069	3.452	-952889.648	-6.744E-05	1.041E-03				
1922.600	-498.095	3.451	-957870.605	-6.562E-05	1.002E-03				
1932.600	-498.076	3.451	-962851.868	-7.352E-05	1.013E-03				
1942.600	-498.117	3.450	-967833.008	-7.473E-05	1.169E-03				
1952.600	-498.005	3.450	-972813.782	-9.843E-05	9.995E-04				
1962.600	-498.108	3.449	-977794.617	-9.053E-05	1.099E-03				
1972.600	-498.137	3.448	-982775.085	-8.689E-05	1.109E-03				
1982.600	-498.074	3.448	-987755.615	-7.595E-05	1.104E-03				
1992.600	-498.025	3.447	-992736.267	-6.744E-05	1.080E-03				
2002.600	-498.302	3.446	-997716.919	-7.170E-05	1.129E-03				
2012.600	-497.993	3.446	-1002697.632	-8.932E-05	1.109E-03				
2022.600	-498.195	3.445	-1007678.833	-8.992E-05	1.130E-03				
2032.600	-498.246	3.445	-1012660.522	-7.291E-05	1.080E-03				
2042.600	-497.971	3.444	-1017641.296	-8.749E-05	1.058E-03				
2052.600	-498.380	3.443	-1022622.131	-7.109E-05	1.178E-03				
2062.600	-498.074	3.443	-1027602.905	-8.020E-05	1.023E-03				
2072.600	-498.251	3.442	-1032583.496	-8.020E-05	1.166E-03				
2082.600	-498.324	3.441	-1037564.087	-8.203E-05	9.728E-04				
2092.600	-498.144	3.441	-1042544.922	-8.020E-05	1.030E-03				
2102.600	-498.270	3.440	-1047525.391	-7.777E-05	1.064E-03				
2112.600	-498.280	3.440	-1052506.104	-7.960E-05	1.119E-03				
2122.600	-498.229	3.439	-1057486.572	-7.777E-05	1.043E-03				
2132.600	-498.244	3.438	-1062467.163	-7.960E-05	9.867E-04				
2142.600	-498.149	3.438	-1067447.632	-9.539E-05	1.061E-03				
2152.600	-498.183	3.437	-1072428.101	-8.081E-05	9.697E-04				
2162.600	-497.996	3.436	-1077408.569	-7.048E-05	1.140E-03				
2172.600	-498.212	3.436	-1082389.038	-6.623E-05	1.078E-03				
2182.600	-498.117	3.435	-1087369.507	-7.656E-05	1.066E-03				
2192.600	-498.074	3.434	-1092349.976	-8.020E-05	1.096E-03				
2202.600	-498.103	3.433	-1097330.444	-7.838E-05	1.111E-03				
2212.600	-498.249	3.433	-1102310.913	-9.296E-05	1.065E-03				
2222.600	-498.003	3.432	-1107291.382	-8.689E-05	9.594E-04				
2232.600	-498.039	3.431	-1112271.851	-6.744E-05	1.083E-03				
2242.600	-498.018	3.431	-1117252.319	-1.003E-04	1.080E-03				
2252.600	-498.307	3.430	-1122232.788	-7.595E-05	1.092E-03				
2262.600	-498.144	3.429	-1127213.379	-7.048E-05	1.041E-03				
2272.600	-498.222	3.429	-1132193.848	-8.263E-05	1.154E-03				
2282.600	-498.285	3.428	-1137174.316	-7.291E-05	1.111E-03				
2292.600	-498.217	3.427	-1142154.907	-7.656E-05	1.157E-03				
2302.600	-498.003	3.427	-1147135.376	-7.595E-05	9.539E-04				
2312.600	-498.125	3.426	-1152115.845	-8.081E-05	1.023E-03				
2322.600	-498.059	3.425	-1157096.436	-7.899E-05	1.028E-03				
2332.600	-498.222	3.425	-1162077.148	-8.506E-05	1.120E-03				
2342.600	-498.266	3.424	-1167057.861	-9.296E-05	1.078E-03				
2352.600	-498.151	3.423	-1172038.818	-7.838E-05	1.083E-03				
2362.600	-498.219	3.422	-1177019.287	-7.109E-05	1.043E-03				
2372.600	-498.142	3.422	-1181999.878	-7.716E-05	1.051E-03				
2382.600	-498.127	3.421	-1186980.591	-7.352E-05	1.099E-03				
2392.600	-498.205	3.420	-1191961.060	-8.749E-05	9.284E-04				
2402.600	-498.076	3.420	-1196941.528	-6.805E-05	1.149E-03				
2412.600	-498.069	3.419	-1201921.997	-6.927E-05	9.667E-04				
2422.600	-498.185	3.418	-1206902.710	-6.684E-05	1.099E-03				
2432.600	-498.214	3.418	-1211883.179	-7.777E-05	1.085E-03				
2442.600	-498.054	3.417	-1216863.892	-7.716E-05	1.102E-03				
2452.600	-498.091	3.416	-1221844.360	-7.960E-05	1.044E-03				
2462.600	-498.086	3.415	-1226825.073	-6.623E-05	1.164E-03				
2472.600	-498.105	3.415	-1231805.542	-6.623E-05	1.178E-03				
2482.600	-498.166	3.414	-1236786.377	-7.716E-05	1.066E-03				
2492.600	-498.329	3.413	-1241766.846	-7.777E-05	1.161E-03				
2502.600	-498.064	3.413	-1246747.314	-7.473E-05	9.977E-04				
2512.600	-498.086	3.412	-1251727.905	-9.357E-05	1.114E-03				
2522.600	-498.214	3.411	-1256708.496	-8.263E-05	1.054E-03				
2532.600	-498.103	3.410	-1261688.965	-6.987E-05	1.102E-03				
2542.600	-498.227	3.410	-1266669.556	-7.838E-05	1.100E-03				
2552.600	-498.195	3.409	-1271650.269	-8.871E-05	1.081E-03				
2562.600	-498.336	3.408	-1276631.226	-8.992E-05	1.094E-03				
2572.600	-498.397	3.408	-1281612.305	-7.838E-05	1.123E-03				
2582.600	-498.241	3.407	-1286593.140	-6.684E-05	1.143E-03				
2592.600	-498.224	3.406	-1291573.975	-8.506E-05	1.100E-03				
2602.600	-498.168	3.405	-1296554.688	-8.081E-05	1.109E-03				
2612.600	-498.185	3.405	-1301535.156	-7.595E-05	1.041E-03				
2622.600	-498.319	3.404	-1306515.625	-9.175E-05	1.154E-03				
2632.600	-498.137	3.403	-1311496.216	-8.203E-05	1.011E-03				
2642.600	-498.188	3.402	-1316476.807	-8.203E-05	1.079E-03				
2652.600	-498.426	3.402	-1321457.764	-8.932E-05	1.117E-03				
2662.600	-498.319	3.401	-1326438.965	-8.263E-05	1.229E-03				
2672.600	-498.151	3.400	-1331419.678	-7.109E-05	1.147E-03				
2682.600	-498.236	3.399	-1336400.513	-8.506E-05	1.168E-03				
2692.600	-498.338	3.399	-1341381.592	-9.904E-05	1.115E-03				
2702.600	-498.212	3.398	-1346362.427	-6.927E-05	1.030E-03				
2712.600	-498.234	3.397	-1351343.628	-6.805E-05	1.054E-03				
2722.600	-498.319	3.396	-1356324.951	-6.501E-05	1.165E-03				
2732.600	-498.151	3.396	-1361306.885	-7.291E-05	1.062E-03				
2742.600	-498.142	3.395	-1366287.842	-8.142E-05	1.066E-03				
2752.600	-498.312	3.394	-1371270.020	-8.567E-05	1.051E-03				
2762.600	-498.414	3.393	-1376253.906	-7.230E-05	1.020E-03				
2772.600	-498.195	3.393	-1381236.084	-7.291E-05	1.108E-03				
2776.400	-498.103	3.392	-1383128.662	-7.413E-05	1.086E-03				
2776.600	-510.250	3.391	-1383230.713	-6.380E-05	1.039E-03				
2777.000	-509.309	3.391	-1383434.448	-6.562E-05	1.060E-03				
2777.800	-508.826	3.391	-1383841.675	-5.529E-05	1.049E-03				
2779.400	-507.314	3.391	-1384654.175	-7.291E-05	1.032E-03				
2782.600	-504.158	3.391	-1386272.217	-6.015E-05	1.056E-03				
2789.000	-498.917	3.391	-1389481.445	-9.357E-05	9.728E-04				
2799.000	-490.926	3.391	-1394430.054	-6.744E-05	9.503E-04				
2809.000	-483.507	3.391	-1399301.514	-6.441E-05	1.024E-03				
2819.000	-476.187	3.391	-1404099.854	-7.413E-05	1.046E-03				
2829.000	-469.434	3.391	-1408827.026	-6.258E-05	1.081E-03				
2839.000	-462.759	3.391	-1413486.328	-8.385E-05	1.116E-03				
2849.000	-456.412	3.391	-1418080.811	-8.506E-05	1.073E-03				
2859.000	-450.118	3.391	-1422612.183	-6.319E-05	1.065E-03				
2869.000	-444.147	3.391	-1427082.397	-5.104E-05	1.004E-03				
2879.000	-438.413	3.391	-1431493.896	-7.230E-05	1.133E-03				
2889.000	-433.021	3.391	-1435849.976	-8.385E-05	1.052E-03				
2899.000	-427.359	3.391	-1440150.635	-5.833E-05	1.152E-03				
2909.000	-421.870	3.391	-1444396.851	-8.203E-05	1.047E-03				
2919.000	-416.993	3.391	-1448591.187	-6.987E-05	1.064E-03				
2929.000	-411.752	3.391	-1452734.741	-7.352E-05	1.060E-03				
2939.000	-406.803	3.391	-1456827.759	-6.441E-05	1.137E-03				
2949.000	-402.199	3.391	-1460874.023	-5.408E-05	1.126E-03				
2959.000	-397.648	3.391	-1464875.244	-7.656E-05	1.075E-03				
2969.000	-393.569	3.391	-1468832.153	-6.319E-05	1.026E-03				
2979.000	-389.351	3.391	-1472745.605	-7.899E-05	1.139E-03				
2989.000	-385.019	3.391	-1476616.577	-6.197E-05	1.051E-03				
2999.000	-380.884	3.391	-1480446.899	-6.319E-05	1.023E-03				
3009.000	-376.822	3.391	-1484235.962	-9.539E-05	1.128E-03				
3019.000	-373.151	3.391	-1487986.206	-6.258E-05	1.119E-03				
3029.000	-369.468	3.391	-1491698.120	-6.197E-05	1.060E-03				
3039.000	-365.878	3.391	-1495374.268	-8.081E-05	1.068E-03				
3049.000	-362.246	3.391	-1499015.869	-9.539E-05	1.069E-03				
3059.000	-359.056	3.391	-1502622.314	-8.446E-05	9.861E-04				
3069.000	-355.687	3.391	-1506195.435	-6.805E-05	9.205E-04				
3079.000	-352.395	3.391	-1509735.962	-6.866E-05	1.191E-03				
3089.000	-349.517	3.391	-1513244.263	-8.081E-05	1.141E-03				
3099.000	-346.306	3.391	-1516721.924	-8.203E-05	1.177E-03				
3109.000	-343.199	3.391	-1520168.579	-9.843E-05	1.016E-03				
3119.000	-340.083	3.391	-1523585.693	-9.053E-05	1.060E-03				
3129.000	-337.326	3.391	-1526972.534	-6.380E-05	1.024E-03				
3139.000	-334.275	3.391	-1530330.811	-7.170E-05	1.038E-03				
3149.000	-331.640	3.391	-1533661.133	-6.805E-05	1.145E-03				
3159.000	-329.150	3.391	-1536963.623	-6.197E-05	1.068E-03				
3169.000	-326.498	3.391	-1540240.601	-8.020E-05	1.075E-03				
3179.000	-323.518	3.391	-1543491.211	-6.805E-05	1.055E-03				
3189.000	-321.255	3.391	-1546715.698	-6.866E-05	1.081E-03				
3199.000	-318.658	3.391	-1549914.673	-8.446E-05	1.046E-03				
3209.000	-316.196	3.391	-1553087.402	-8.203E-05	1.140E-03				
3219.000	-313.646	3.391	-1556234.619	-7.960E-05	1.087E-03				
3229.000	-311.346	3.391	-1559357.788	-7.656E-05	1.193E-03				
3239.000	-308.521	3.391	-1562455.933	-7.656E-05	9.934E-04				
3249.000	-306.302	3.391	-1565530.151	-7.230E-05	1.141E-03				
3259.000	-304.124	3.391	-1568581.055	-7.534E-05	1.051E-03				
3269.000	-301.693	3.391	-1571608.398	-7.413E-05	1.014E-03				
3279.000	-299.626	3.391	-1574614.136	-8.567E-05	1.013E-03				
3289.000	-297.463	3.391	-1577597.168	-7.473E-05	1.118E-03				
3299.000	-294.988	3.391	-1580558.594	-6.623E-05	1.229E-03				
3309.000	-292.786	3.391	-1583496.826	-9.053E-05	1.043E-03				
3319.000	-290.440	3.391	-1586412.231	-7.291E-05	1.071E-03				
3329.000	-288.604	3.391	-1589307.373	-8.689E-05	1.078E-03				
3339.000	-286.290	3.391	-1592180.908	-8.932E-05	1.075E-03				
3349.000	-284.007	3.391	-1595032.715	-7.656E-05	1.003E-03				
3359.000	-282.048	3.391	-1597864.136	-8.142E-05	1.084E-03				
3369.000	-279.938	3.391	-1600674.561	-7.230E-05	1.094E-03				
3379.000	-278.086	3.391	-1603464.844	-6.562E-05	1.102E-03				
3389.000	-276.355	3.391	-1606235.107	-9.053E-05	1.160E-03				
3399.000	-273.912	3.391	-1608985.718	-8.081E-05	1.006E-03				
3409.000	-272.023	3.391	-1611714.966	-8.446E-05	1.099E-03				
3419.000	-270.059	3.391	-1614424.805	-7.656E-05	1.117E-03				
3429.000	-267.965	3.391	-1617115.479	-8.081E-05	1.120E-03				
3439.000	-266.244	3.391	-1619786.133	-6.866E-05	9.551E-04				
3449.000	-263.954	3.391	-1622436.890	-8.689E-05	1.067E-03				
3459.000	-262.153	3.391	-1625067.383	-8.020E-05	1.036E-03				
3469.000	-260.301	3.391	-1627679.932	-7.899E-05	1.199E-03				
3479.000	-258.713	3.391	-1630275.269	-8.324E-05	1.024E-03				
3489.000	-256.732	3.391	-1632851.318	-9.539E-05	1.069E-03				
3499.000	-254.695	3.391	-1635408.691	-8.263E-05	1.007E-03				
3509.000	-252.923	3.391	-1637946.777	-9.357E-05	1.049E-03				
3519.000	-251.272	3.391	-1640467.041	-9.053E-05	1.108E-03				
3529.000	-249.361	3.391	-1642969.604	-7.291E-05	1.111E-03				
3539.000	-247.767	3.391	-1645454.468	-6.744E-05	1.063E-03				
3549.000	-245.579	3.391	-1647921.387	-8.081E-05	1.102E-03				
3559.000	-244.123	3.391	-1650370.239	-7.960E-05	1.017E-03				
3569.000	-242.336	3.391	-1652802.124	-8.628E-05	1.079E-03				
3579.000	-240.714	3.391	-1655216.919	-7.534E-05	1.038E-03				
3589.000	-238.942	3.391	-1657613.892	-8.203E-05	9.102E-04				
3599.000	-237.141	3.391	-1659993.530	-6.623E-05	1.086E-03				
3609.000	-235.310	3.391	-1662356.079	-6.319E-05	1.125E-03				
3619.000	-233.579	3.391	-1664700.195	-6.927E-05	1.060E-03				
3629.000	-232.028	3.391	-1667028.687	-8.689E-05	1.129E-03				
3639.000	-230.546	3.391	-1669341.064	-8.020E-05	1.057E-03				
3649.000	-228.676	3.391	-1671636.353	-7.716E-05	1.075E-03				
3659.000	-227.152	3.391	-1673916.138	-7.595E-05	1.165E-03				
3669.000	-225.766	3.391	-1676179.321	-9.053E-05	1.071E-03				
3679.000	-223.911	3.391	-1678427.246	-7.170E-05	1.064E-03				
3689.000	-222.280	3.391	-1680659.546	-8.020E-05	1.091E-03				
3699.000	-220.717	3.391	-1682874.634	-8.385E-05	1.018E-03				
3709.000	-218.967	3.391	-1685072.998	-8.081E-05	9.673E-04				
3719.000	-217.696	3.391	-1687256.714	-6.197E-05	1.067E-03				
3729.000	-216.084	3.391	-1689425.049	-7.595E-05	1.121E-03				
3739.000	-214.552	3.391	-1691577.393	-8.628E-05	1.051E-03				
3749.000	-213.176	3.391	-1693714.233	-8.567E-05	1.061E-03				
3759.000	-211.487	3.391	-1695835.693	-7.473E-05	1.175E-03				
3769.000	-210.001	3.391	-1697942.383	-8.142E-05	1.041E-03				
3779.000	-208.351	3.391	-1700033.325	-6.562E-05	1.012E-03				
3789.000	-206.849	3.391	-1702108.276	-7.656E-05	1.184E-03				
3799.000	-205.429	3.391	-1704169.556	-8.263E-05	1.120E-03				
3809.000	-203.861	3.391	-1706214.966	-7.048E-05	1.163E-03				
3819.000	-202.497	3.391	-1708247.559	-6.866E-05	1.182E-03				
3829.000	-200.898	3.391	-1710265.015	-6.501E-05	1.044E-03				
3839.000	-199.767	3.391	-1712267.700	-5.894E-05	1.054E-03				
3849.000	-198.296	3.391	-1714257.446	-6.197E-05	1.138E-03				
3859.000	-196.879	3.391	-1716232.178	-8.506E-05	9.861E-04				
3869.000	-195.297	3.391	-1718193.481	-5.590E-05	1.049E-03				
3879.000	-193.729	3.391	-1720140.137	-7.473E-05	1.003E-03				
3889.000	-192.396	3.391	-1722072.266	-7.048E-05	1.088E-03				
3899.000	-191.042	3.391	-1723990.356	-7.048E-05	1.105E-03				
3909.000	-190.116	3.391	-1725896.606	-7.473E-05	1.105E-03				
3919.000	-188.667	3.391	-1727789.429	-8.324E-05	1.014E-03				
3929.000	-187.491	3.391	-1729669.556	-8.263E-05	1.083E-03				
3939.000	-185.959	3.391	-1731535.400	-8.081E-05	1.009E-03				
3949.000	-184.503	3.391	-1733388.306	-7.413E-05	1.146E-03				
3959.000	-183.604	3.391	-1735228.271	-7.716E-05	1.086E-03				
3969.000	-181.892	3.391	-1737055.420	-8.506E-05	1.079E-03				
3979.000	-180.917	3.391	-1738869.507	-6.623E-05	1.090E-03				
3989.000	-179.289	3.391	-1740669.067	-7.899E-05	1.137E-03				
3999.000	-178.253	3.391	-1742456.299	-8.020E-05	1.091E-03				
4009.000	-176.833	3.391	-1744230.957	-8.081E-05	1.046E-03				
4019.000	-175.589	3.391	-1745992.676	-8.628E-05	1.032E-03				
4029.000	-174.308	3.391	-1747741.577	-7.838E-05	1.170E-03				
4039.000	-172.898	3.391	-1749477.539	-6.927E-05	1.054E-03				
4049.000	-171.988	3.391	-1751201.782	-7.716E-05	1.080E-03				
4059.000	-170.795	3.391	-1752914.795	-7.230E-05	1.143E-03				
4069.000	-169.361	3.391	-1754616.089	-5.468E-05	1.072E-03				
4079.000	-168.177	3.391	-1756305.420	-8.324E-05	1.034E-03				
4089.000	-167.353	3.391	-1757983.398	-9.418E-05	1.137E-03				
4099.000	-166.203	3.391	-1759649.170	-6.684E-05	9.880E-04				
4109.000	-164.846	3.391	-1761302.368	-8.324E-05	1.121E-03				
4119.000	-163.507	3.391	-1762943.359	-6.623E-05	1.062E-03				
4129.000	-162.615	3.391	-1764573.242	-8.932E-05	1.083E-03				
4139.000	-161.404	3.391	-1766191.284	-6.562E-05	1.050E-03				
4149.000	-160.164	3.391	-1767798.340	-6.744E-05	1.144E-03				
4159.000	-159.296	3.391	-1769394.287	-8.689E-05	1.013E-03				
4169.000	-158.015	3.391	-1770979.858	-7.413E-05	9.946E-04				
4179.000	-156.844	3.391	-1772554.199	-8.081E-05	1.045E-03				
4189.000	-155.621	3.391	-1774116.333	-8.749E-05	1.170E-03				
4199.000	-154.680	3.391	-1775668.823	-1.003E-04	9.418E-04				
4209.000	-153.664	3.391	-1777209.717	-6.684E-05	1.073E-03				
4219.000	-152.405	3.391	-1778739.136	-9.418E-05	1.010E-03				
4229.000	-151.442	3.391	-1780257.813	-7.716E-05	1.083E-03				
4239.000	-150.110	3.391	-1781765.503	-8.203E-05	1.072E-03				
4249.000	-149.193	3.391	-1783263.062	-6.987E-05	1.081E-03				
4259.000	-148.277	3.391	-1784749.756	-6.927E-05	1.095E-03				
4269.000	-147.222	3.391	-1786225.586	-8.081E-05	1.079E-03				
4279.000	-145.778	3.391	-1787690.674	-6.319E-05	1.023E-03				
4289.000	-145.146	3.391	-1789146.484	-8.385E-05	9.412E-04				
4299.000	-143.938	3.391	-1790591.309	-8.203E-05	1.110E-03				
4309.000	-142.817	3.391	-1792026.489	-6.805E-05	1.113E-03				
4319.000	-142.119	3.391	-1793451.538	-8.446E-05	1.099E-03				
4329.000	-140.843	3.391	-1794865.967	-8.749E-05	1.092E-03				
4339.000	-139.905	3.391	-1796270.996	-4.678E-05	9.952E-04				
4349.000	-138.847	3.391	-1797665.039	-9.418E-05	1.051E-03				
4359.000	-137.863	3.391	-1799048.340	-9.235E-05	1.127E-03				
4369.000	-136.737	3.391	-1800423.340	-8.871E-05	1.040E-03				
4379.000	-136.110	3.391	-1801787.964	-8.932E-05	1.090E-03				
4389.000	-135.065	3.391	-1803143.677	-7.716E-05	1.019E-03				
4399.000	-134.180	3.391	-1804488.892	-9.479E-05	1.152E-03				
4409.000	-133.334	3.391	-1805825.073	-7.960E-05	1.085E-03				
4419.000	-132.252	3.391	-1807151.733	-8.628E-05	1.089E-03				
4429.000	-131.253	3.391	-1808468.018	-8.385E-05	9.977E-04				
4439.000	-130.499	3.391	-1809776.001	-8.628E-05	9.782E-04				
4449.000	-129.366	3.391	-1811074.585	-7.777E-05	9.886E-04				
4459.000	-128.418	3.391	-1812364.014	-7.534E-05	1.111E-03				
4469.000	-127.769	3.391	-1813645.630	-7.291E-05	1.105E-03				
4479.000	-126.875	3.391	-1814918.579	-8.506E-05	1.110E-03				
4489.000	-125.837	3.391	-1816182.983	-1.033E-04	1.010E-03				
4499.000	-125.311	3.391	-1817438.843	-9.722E-05	1.037E-03				
4509.000	-124.125	3.391	-1818685.425	-9.175E-05	1.086E-03				
4519.000	-123.328	3.391	-1819922.241	-6.441E-05	1.025E-03				
4529.000	-122.596	3.391	-1821152.100	-8.385E-05	1.027E-03				
4539.000	-121.551	3.391	-1822372.070	-9.357E-05	1.061E-03				
4549.000	-121.031	3.391	-1823583.740	-8.446E-05	1.125E-03				
4559.000	-119.927	3.391	-1824788.330	-8.142E-05	1.028E-03				
4569.000	-118.959	3.391	-1825984.131	-6.805E-05	1.078E-03				
4579.000	-118.485	3.391	-1827171.875	-8.932E-05	1.123E-03				
4589.000	-117.608	3.391	-1828351.196	-9.904E-05	1.010E-03				
4599.000	-116.796	3.391	-1829522.583	-7.777E-05	1.078E-03				
4609.000	-115.853	3.391	-1830685.669	-8.020E-05	1.024E-03				
4619.000	-115.046	3.391	-1831841.187	-9.782E-05	1.139E-03				
4629.000	-114.404	3.391	-1832987.793	-8.324E-05	1.100E-03				
4639.000	-113.730	3.391	-1834127.563	-8.142E-05	1.105E-03				
4649.000	-112.739	3.391	-1835259.277	-8.506E-05	1.076E-03				
4659.000	-112.082	3.391	-1836383.545	-1.015E-04	1.055E-03				
4669.000	-111.392	3.391	-1837500.122	-7.899E-05	1.023E-03				
4679.000	-110.337	3.391	-1838608.276	-9.175E-05	1.100E-03				
4689.000	-109.447	3.391	-1839709.473	-8.142E-05	1.075E-03				
4699.000	-108.895	3.391	-1840801.758	-8.932E-05	1.027E-03				
4709.000	-108.161	3.391	-1841887.939	-8.203E-05	1.085E-03				
4719.000	-107.451	3.391	-1842965.088	-9.722E-05	1.097E-03				
4729.000	-106.654	3.391	-1844036.255	-9.479E-05	1.124E-03				
4739.000	-105.954	3.391	-1845100.586	-6.137E-05	9.867E-04				
4749.000	-105.224	3.391	-1846157.837	-9.175E-05	1.083E-03				
4759.000	-104.570	3.391	-1847207.764	-8.020E-05	1.049E-03				
4769.000	-103.688	3.391	-1848250.244	-9.539E-05	1.188E-03				
4779.000	-103.092	3.391	-1849285.156	-8.324E-05	1.045E-03				
4789.000	-102.499	3.391	-1850312.866	-7.716E-05	9.873E-04				
4799.000	-101.836	3.391	-1851335.083	-6.866E-05	1.003E-03				
4809.000	-101.170	3.391	-1852349.609	-7.170E-05	1.133E-03				
4819.000	-100.404	3.391	-1853357.666	-7.777E-05	1.019E-03				
4829.000	-99.874	3.391	-1854358.521	-8.567E-05	1.068E-03				
4839.000	-99.264	3.391	-1855354.126	-9.661E-05	1.059E-03				
4849.000	-98.457	3.391	-1856342.773	-8.689E-05	1.039E-03				
4859.000	-97.674	3.391	-1857322.754	-8.446E-05	1.088E-03				
4869.000	-97.171	3.391	-1858296.997	-8.506E-05	1.051E-03				
4879.000	-96.378	3.391	-1859264.038	-8.871E-05	1.058E-03				
4889.000	-95.559	3.391	-1860224.609	-8.324E-05	1.027E-03				
4899.000	-95.058	3.391	-1861178.955	-8.628E-05	1.161E-03				
4909.000	-94.480	3.391	-1862126.587	-7.291E-05	1.007E-03				
4919.000	-93.913	3.391	-1863067.749	-5.711E-05	1.029E-03				
4929.000	-93.473	3.391	-1864004.028	-8.020E-05	1.144E-03				
4939.000	-92.484	3.391	-1864934.937	-7.413E-05	1.106E-03				
4949.000	-92.102	3.391	-1865858.765	-7.716E-05	9.661E-04				
4959.000	-91.514	3.391	-1866776.978	-7.716E-05	1.003E-03				
4969.000	-90.673	3.391	-1867688.721	-8.628E-05	1.121E-03				
4979.000	-90.177	3.391	-1868594.116	-9.235E-05	1.013E-03				
4989.000	-89.460	3.391	-1869493.042	-7.534E-05	1.156E-03				
4999.000	-88.764	3.391	-1870385.742	-7.656E-05	1.103E-03				
5009.000	-88.373	3.391	-1871272.827	-7.352E-05	1.030E-03				
5019.000	-87.865	3.391	-1872153.442	-8.689E-05	9.576E-04				
5029.000	-87.046	3.391	-1873027.588	-6.927E-05	1.083E-03				
5039.000	-86.630	3.391	-1873896.362	-7.716E-05	1.075E-03				
5049.000	-85.932	3.391	-1874758.545	-9.053E-05	1.102E-03				
5059.000	-85.560	3.391	-1875616.577	-8.020E-05	9.886E-04				
5069.000	-84.989	3.391	-1876468.994	-7.838E-05	1.123E-03				
5079.000	-84.279	3.391	-1877316.528	-8.871E-05	1.037E-03				
5089.000	-84.051	3.391	-1878157.593	-7.899E-05	1.104E-03				
5099.000	-83.205	3.391	-1878992.798	-7.352E-05	1.117E-03				
5109.000	-82.857	3.391	-1879822.510	-7.595E-05	1.100E-03				
5119.000	-82.167	3.391	-1880647.461	-8.081E-05	1.105E-03				
5129.000	-81.843	3.391	-1881467.773	-7.534E-05	1.052E-03				
5139.000	-81.330	3.391	-1882284.302	-8.628E-05	1.116E-03				
5149.000	-80.509	3.391	-1883094.727	-7.291E-05	1.123E-03				
5159.000	-80.113	3.391	-1883899.292	-7.960E-05	1.106E-03				
5169.000	-79.529	3.391	-1884697.876	-7.170E-05	1.071E-03				
5179.000	-79.177	3.391	-1885491.333	-7.595E-05	1.081E-03				
5189.000	-78.780	3.391	-1886281.616	-7.595E-05	1.124E-03				
5199.000	-78.250	3.391	-1887066.162	-8.324E-05	1.070E-03				
5209.000	-77.781	3.391	-1887846.313	-7.352E-05	1.028E-03				
5219.000	-77.067	3.391	-1888620.483	-8.263E-05	1.041E-03				
5229.000	-76.673	3.391	-1889389.526	-7.413E-05	1.040E-03				
5239.000	-76.306	3.391	-1890153.931	-9.722E-05	1.043E-03				
5249.000	-75.433	3.391	-1890913.330	-7.838E-05	1.149E-03				
5259.000	-75.144	3.391	-1891667.725	-8.020E-05	1.083E-03				
5269.000	-74.570	3.391	-1892417.114	-6.987E-05	1.077E-03				
5279.000	-74.210	3.391	-1893161.621	-8.871E-05	9.636E-04				
5289.000	-73.909	3.391	-1893901.245	-8.810E-05	1.191E-03				
5299.000	-73.235	3.391	-1894636.475	-8.446E-05	1.067E-03				
5309.000	-72.708	3.391	-1895368.042	-8.446E-05	1.032E-03				
5319.000	-72.343	3.391	-1896094.482	-8.324E-05	1.057E-03				
5329.000	-72.241	3.391	-1896817.627	-8.506E-05	1.155E-03				
5339.000	-71.541	3.391	-1897536.255	-8.203E-05	1.030E-03				
5349.000	-71.047	3.391	-1898250.244	-7.656E-05	1.056E-03				
5359.000	-70.756	3.391	-1898959.106	-7.656E-05	1.074E-03				
5369.000	-70.437	3.391	-1899664.307	-9.965E-05	9.916E-04				
5379.000	-69.922	3.391	-1900365.845	-8.992E-05	1.049E-03				
5389.000	-69.458	3.391	-1901061.890	-8.992E-05	1.149E-03				
5399.000	-69.018	3.391	-1901752.441	-8.628E-05	1.082E-03				
5409.000	-68.339	3.391	-1902439.575	-8.689E-05	1.009E-03				
5419.000	-67.960	3.391	-1903122.681	-6.319E-05	1.103E-03				
5429.000	-67.690	3.391	-1903800.537	-8.385E-05	9.558E-04				
5439.000	-67.289	3.391	-1904475.098	-6.987E-05	1.150E-03				
5449.000	-66.728	3.391	-1905145.020	-8.810E-05	1.018E-03				
5459.000	-66.399	3.391	-1905810.303	-7.170E-05	1.029E-03				
5469.000	-66.183	3.391	-1906473.022	-9.175E-05	1.034E-03				
5479.000	-65.663	3.391	-1907132.080	-9.661E-05	1.046E-03				
5489.000	-65.398	3.391	-1907786.377	-9.661E-05	1.078E-03				
5499.000	-64.812	3.391	-1908437.500	-7.048E-05	9.965E-04				
5509.000	-64.547	3.391	-1909084.351	-9.479E-05	1.011E-03				
5519.000	-63.985	3.391	-1909726.318	-8.203E-05	1.063E-03				
5529.000	-63.672	3.391	-1910363.525	-9.782E-05	1.109E-03				
5539.000	-63.266	3.391	-1910997.559	-8.749E-05	1.003E-03				
5549.000	-62.707	3.391	-1911626.465	-9.235E-05	1.005E-03				
5559.000	-62.218	3.391	-1912252.075	-9.600E-05	1.071E-03				
5569.000	-61.958	3.391	-1912874.390	-9.235E-05	1.091E-03				
5579.000	-61.708	3.391	-1913491.455	-8.506E-05	1.076E-03				
5589.000	-61.090	3.391	-1914105.591	-8.385E-05	1.072E-03				
5599.000	-60.891	3.391	-1914715.942	-8.081E-05	1.024E-03				
5609.000	-60.368	3.391	-1915322.754	-9.235E-05	1.129E-03				
5619.000	-60.176	3.391	-1915927.002	-8.932E-05	1.017E-03				
5629.000	-59.802	3.391	-1916527.100	-7.656E-05	1.101E-03				
5639.000	-59.444	3.391	-1917124.756	-8.871E-05	1.107E-03				
5649.000	-59.119	3.391	-1917717.651	-7.109E-05	1.086E-03				
5659.000	-58.893	3.391	-1918307.251	-9.539E-05	1.091E-03				
5669.000	-58.372	3.391	-1918893.433	-7.656E-05	1.017E-03				
5679.000	-57.981	3.391	-1919474.487	-6.744E-05	1.100E-03				
5689.000	-57.672	3.391	-1920052.612	-8.992E-05	1.034E-03				
5699.000	-57.312	3.391	-1920626.465	-8.810E-05	1.054E-03				
5709.000	-56.892	3.391	-1921197.510	-7.838E-05	1.047E-03				
5719.000	-56.685	3.391	-1921764.771	-9.175E-05	1.075E-03				
5729.000	-56.384	3.391	-1922329.468	-8.810E-05	1.021E-03				
5739.000	-55.883	3.391	-1922890.747	-9.114E-05	1.025E-03				
5749.000	-55.710	3.391	-1923447.388	-8.446E-05	1.061E-03				
5759.000	-55.285	3.391	-1924001.099	-8.142E-05	1.069E-03				
5769.000	-54.845	3.391	-1924550.415	-7.595E-05	1.139E-03				
5779.000	-54.682	3.391	-1925099.243	-8.446E-05	1.139E-03				
5789.000	-54.344	3.391	-1925643.555	-7.899E-05	1.093E-03				
5799.000	-53.912	3.391	-1926186.035	-8.446E-05	1.074E-03				
5809.000	-53.664	3.391	-1926724.609	-8.506E-05	9.770E-04				
5819.000	-53.445	3.391	-1927260.864	-7.960E-05	1.080E-03				
5829.000	-53.148	3.391	-1927792.358	-6.987E-05	9.867E-04				
5839.000	-52.633	3.391	-1928321.045	-1.015E-04	1.046E-03				
5849.000	-52.356	3.391	-1928846.069	-7.838E-05	8.913E-04				
5859.000	-52.122	3.391	-1929369.263	-7.048E-05	1.079E-03				
5869.000	-51.624	3.391	-1929888.306	-9.175E-05	1.021E-03				
5879.000	-51.665	3.391	-1930405.029	-8.567E-05	1.161E-03				
5889.000	-51.082	3.391	-1930917.725	-9.114E-05	1.058E-03				
5899.000	-50.883	3.391	-1931426.147	-8.932E-05	1.034E-03				
5909.000	-50.681	3.391	-1931933.105	-5.894E-05	1.119E-03				
5919.000	-50.253	3.391	-1932438.477	-8.203E-05	1.115E-03				
5929.000	-49.998	3.391	-1932939.087	-7.413E-05	1.080E-03				
5939.000	-49.784	3.391	-1933437.866	-8.324E-05	1.036E-03				
5949.000	-49.492	3.391	-1933932.861	-7.534E-05	1.114E-03				
5959.000	-49.050	3.391	-1934426.025	-6.744E-05	1.141E-03				
5969.000	-48.702	3.391	-1934914.429	-9.843E-05	9.959E-04				
5979.000	-48.505	3.391	-1935402.344	-6.441E-05	1.123E-03				
5989.000	-48.325	3.391	-1935885.010	-7.352E-05	1.026E-03				
5999.000	-47.800	3.391	-1936366.943	-7.716E-05	1.127E-03				
6009.000	-47.739	3.391	-1936845.093	-8.263E-05	1.074E-03				
6019.000	-47.411	3.391	-1937321.289	-8.567E-05	1.080E-03				
6029.000	-47.224	3.391	-1937794.434	-6.805E-05	1.096E-03				
6039.000	-46.876	3.391	-1938264.282	-9.175E-05	1.065E-03				
6049.000	-46.529	3.391	-1938731.812	-8.203E-05	1.032E-03				
6059.000	-46.633	3.391	-1939196.167	-8.871E-05	1.024E-03				
6069.000	-46.106	3.391	-1939659.546	-8.142E-05	1.011E-03				
6079.000	-45.909	3.391	-1940118.652	-7.352E-05	1.176E-03				
6089.000	-45.671	3.391	-1940576.416	-7.352E-05	1.090E-03				
6099.000	-45.396	3.391	-1941032.715	-8.324E-05	1.046E-03				
6109.000	-45.162	3.391	-1941484.497	-8.081E-05	1.137E-03				
6119.000	-44.842	3.391	-1941934.204	-8.446E-05	9.807E-04				
6129.000	-44.321	3.391	-1942380.859	-8.385E-05	1.174E-03				
6139.000	-44.295	3.391	-1942826.050	-8.142E-05	1.031E-03				
6149.000	-44.188	3.391	-1943267.944	-7.595E-05	1.062E-03				
6159.000	-43.901	3.391	-1943707.397	-7.413E-05	1.054E-03				
6169.000	-43.709	3.391	-1944145.386	-8.020E-05	1.082E-03				
6179.000	-43.524	3.391	-1944580.200	-8.020E-05	1.132E-03				
6189.000	-43.191	3.391	-1945013.428	-8.992E-05	1.092E-03				
6199.000	-42.838	3.391	-1945443.115	-7.352E-05	9.776E-04				
6209.000	-42.476	3.391	-1945870.361	-8.142E-05	1.060E-03				
6219.000	-42.333	3.391	-1946295.410	-6.927E-05	1.048E-03				
6229.000	-42.240	3.391	-1946718.628	-9.114E-05	1.057E-03				
6239.000	-42.197	3.391	-1947140.015	-8.203E-05	1.192E-03				
6249.000	-41.642	3.391	-1947560.303	-9.114E-05	1.090E-03				
6259.000	-41.414	3.391	-1947975.708	-7.109E-05	1.037E-03				
6269.000	-41.190	3.391	-1948389.893	-7.777E-05	1.102E-03				
6279.000	-40.903	3.391	-1948799.316	-6.744E-05	1.052E-03				
6289.000	-40.818	3.391	-1949208.252	-8.749E-05	1.012E-03				
6299.000	-40.743	3.391	-1949616.577	-8.932E-05	1.047E-03				
6309.000	-40.271	3.391	-1950020.996	-8.446E-05	9.831E-04				
6319.000	-40.169	3.391	-1950423.828	-7.716E-05	1.027E-03				
6329.000	-39.929	3.391	-1950824.219	-7.595E-05	1.097E-03				
6339.000	-39.744	3.391	-1951221.680	-8.628E-05	1.055E-03				
6349.000	-39.513	3.391	-1951618.408	-9.539E-05	1.134E-03				
6359.000	-39.345	3.391	-1952012.329	-6.927E-05	1.063E-03				
6369.000	-39.255	3.391	-1952405.151	-8.081E-05	1.142E-03				
6376.200	-39.032	3.391	-1952686.401	-7.170E-05	9.855E-04				
6376.400	1.896	3.395	-1952686.035	-7.534E-05	1.111E-03				
6376.800	1.857	3.395	-1952685.303	-8.567E-05	1.066E-03				
6377.600	1.663	3.395	-1952683.838	-7.473E-05	1.109E-03				
6379.200	1.658	3.395	-1952680.908	-6.623E-05	1.110E-03				
6382.400	1.629	3.395	-1952675.171	-8.142E-05	1.052E-03				
6388.800	1.852	3.395	-1952663.452	-7.899E-05	1.079E-03				
6398.800	1.750	3.396	-1952645.264	-8.081E-05	1.038E-03				
6408.800	1.668	3.396	-1952627.319	-8.810E-05	1.043E-03				
6418.800	1.741	3.396	-1952609.009	-6.441E-05	1.114E-03				
6428.800	1.638	3.396	-1952590.820	-6.987E-05	1.038E-03				
6438.800	1.711	3.396	-1952572.510	-7.413E-05	1.069E-03				
6448.800	1.760	3.396	-1952554.199	-8.689E-05	1.014E-03				
6458.800	1.697	3.396	-1952535.889	-6.805E-05	1.196E-03				
6468.800	1.818	3.396	-1952517.578	-8.932E-05	1.057E-03				
6478.800	1.872	3.396	-1952499.268	-8.203E-05	1.145E-03				
6488.800	1.765	3.397	-1952480.957	-8.567E-05	1.080E-03				
6496.200	1.799	3.397	-1952467.407	-8.689E-05	9.643E-04				
6496.400	251.469	3.418	-1952417.114	-7.109E-05	1.016E-03				
6496.800	251.605	3.418	-1952316.528	-8.567E-05	1.163E-03				
6497.600	251.605	3.419	-1952115.356	-9.357E-05	1.160E-03				
6499.200	251.751	3.419	-1951713.013	-9.053E-05	1.003E-03				
6502.400	251.522	3.420	-1950908.081	-7.473E-05	1.021E-03				
6508.800	251.673	3.421	-1949298.096	-7.595E-05	1.151E-03				
6518.800	251.906	3.423	-1946782.959	-7.413E-05	1.123E-03				
6528.800	251.629	3.424	-1944267.822	-9.600E-05	9.807E-04				
6538.800	251.605	3.425	-1941753.174	-8.628E-05	1.068E-03				
6548.800	251.625	3.426	-1939237.549	-7.109E-05	1.043E-03				
6558.800	251.556	3.427	-1936722.412	-7.960E-05	1.133E-03				
6568.800	251.770	3.428	-1934207.275	-7.716E-05	1.111E-03				
6578.800	251.610	3.428	-1931692.383	-9.053E-05	1.136E-03				
6588.800	251.649	3.429	-1929176.880	-8.689E-05	1.086E-03				
6598.800	251.663	3.430	-1926661.011	-9.053E-05	1.057E-03				
6604.200	251.834	3.430	-1925301.758	-8.446E-05	1.075E-03				
6604.400	1.935	3.409	-1925301.392	-8.506E-05	1.038E-03				
6604.800	1.809	3.409	-1925300.659	-7.352E-05	1.040E-03				
6605.600	1.755	3.408	-1925299.194	-9.418E-05	1.049E-03				
6607.200	1.794	3.408	-1925296.265	-7.838E-05	9.503E-04				
6610.400	2.086	3.407	-1925290.405	-7.899E-05	9.861E-04				
6616.800	1.760	3.407	-1925278.687	-7.352E-05	1.025E-03				
6626.800	1.809	3.406	-1925260.376	-9.904E-05	1.071E-03				
6636.800	1.770	3.406	-1925242.065	-8.810E-05	1.023E-03				
6646.800	1.775	3.406	-1925223.755	-9.235E-05	1.092E-03				
6656.800	1.716	3.405	-1925205.444	-9.965E-05	9.928E-04				
6666.800	1.852	3.405	-1925187.134	-8.385E-05	1.000E-03				
6676.800	1.726	3.405	-1925168.823	-8.324E-05	1.092E-03				
6686.800	1.886	3.405	-1925150.513	-8.567E-05	1.087E-03				
6696.800	1.731	3.405	-1925132.202	-1.015E-04	1.114E-03				
6706.800	1.711	3.405	-1925113.892	-8.081E-05	1.003E-03				
6716.800	1.838	3.405	-1925095.581	-9.600E-05	1.108E-03				
6724.200	1.862	3.405	-1925082.031	-1.045E-04	1.047E-03				
6724.400	-248.207	3.383	-1925131.714	-8.689E-05	1.156E-03				
6724.800	-248.314	3.383	-1925231.079	-9.782E-05	1.058E-03				
6725.600	-248.311	3.382	-1925429.810	-7.960E-05	1.002E-03				
6727.200	-248.231	3.382	-1925827.271	-8.567E-05	1.065E-03				
6730.400	-248.182	3.381	-1926622.192	-9.296E-05	1.005E-03				
6736.800	-248.236	3.380	-1928212.036	-7.413E-05	1.099E-03				
6746.800	-248.362	3.379	-1930696.167	-9.357E-05	1.007E-03				
6756.800	-248.292	3.377	-1933180.054	-8.385E-05	1.047E-03				
6766.800	-248.450	3.376	-1935664.063	-9.600E-05	9.734E-04				
6776.800	-248.262	3.375	-1938148.071	-1.039E-04	1.088E-03				
6786.800	-248.442	3.374	-1940631.958	-9.843E-05	1.022E-03				
6796.800	-248.391	3.374	-1943116.089	-9.235E-05	1.055E-03				
6806.800	-248.345	3.373	-1945600.220	-6.744E-05	1.187E-03				
6816.800	-248.389	3.372	-1948084.351	-7.960E-05	1.004E-03				
6826.800	-248.447	3.372	-1950568.481	-6.501E-05	1.068E-03				
6832.200	-248.489	3.371	-1951909.912	-8.385E-05	9.545E-04				
6832.400	1.507	3.393	-1951909.668	-8.506E-05	1.196E-03				
6832.800	1.755	3.393	-1951908.936	-8.203E-05	1.094E-03				
6833.600	1.716	3.393	-1951907.593	-7.838E-05	9.794E-04				
6835.200	1.517	3.394	-1951904.785	-8.446E-05	1.075E-03				
6838.400	1.668	3.394	-1951898.926	-9.539E-05	1.013E-03				
6844.800	1.799	3.395	-1951887.207	-8.263E-05	1.086E-03				
6854.800	1.867	3.396	-1951868.896	-9.296E-05	1.068E-03				
6864.800	1.779	3.396	-1951850.708	-8.263E-05	1.109E-03				
6874.800	1.765	3.396	-1951832.520	-8.871E-05	1.130E-03				
6884.800	1.570	3.397	-1951814.575	-7.838E-05	1.071E-03				
6894.800	1.546	3.397	-1951796.387	-8.324E-05	1.011E-03				
6904.800	1.814	3.397	-1951778.198	-7.716E-05	1.099E-03				
6914.800	1.702	3.397	-1951759.888	-9.114E-05	1.145E-03				
6924.800	1.673	3.397	-1951741.577	-9.114E-05	1.051E-03				
6934.800	1.702	3.398	-1951723.267	-8.020E-05	1.106E-03				
6944.800	1.765	3.398	-1951704.956	-1.021E-04	1.109E-03				
6952.200	1.814	3.398	-1951691.406	-8.932E-05	1.072E-03				
6952.400	501.387	3.441	-1951591.187	-9.053E-05	1.163E-03				
6952.800	501.513	3.441	-1951390.503	-7.109E-05	1.135E-03				
6953.600	501.581	3.442	-1950989.136	-9.600E-05	1.055E-03				
6955.200	501.771	3.443	-1950186.401	-8.142E-05	1.079E-03				
6958.400	501.542	3.445	-1948580.933	-8.446E-05	1.040E-03				
6963.600	501.698	3.447	-1945972.168	-8.263E-05	1.127E-03				
6970.000	501.591	3.449	-1942761.230	-7.352E-05	1.123E-03				
6978.200	501.620	3.451	-1938647.217	-7.170E-05	1.117E-03				
6988.000	501.474	3.453	-1933730.469	-7.413E-05	1.057E-03				
6998.000	501.611	3.454	-1928713.379	-7.291E-05	1.044E-03				
7006.200	501.620	3.456	-1924599.365	-8.567E-05	1.072E-03				
7006.400	2.100	3.413	-1924598.999	-6.744E-05	1.130E-03				
7006.800	1.629	3.412	-1924598.267	-7.777E-05	1.114E-03				
7007.600	1.721	3.412	-1924596.802	-7.413E-05	1.172E-03				
7009.200	1.867	3.411	-1924593.872	-7.352E-05	1.083E-03				
7012.400	1.697	3.410	-1924588.013	-8.628E-05	1.069E-03				
7018.800	1.765	3.409	-1924576.416	-8.567E-05	1.033E-03				
7028.800	1.741	3.408	-1924558.105	-8.385E-05	1.029E-03				
7038.800	1.702	3.407	-1924539.917	-9.296E-05	9.539E-04				
7048.800	1.653	3.407	-1924522.217	-6.987E-05	9.813E-04				
7058.800	1.648	3.407	-1924504.395	-8.020E-05	1.154E-03				
7068.800	1.814	3.406	-1924486.572	-8.203E-05	1.099E-03				
7078.800	1.463	3.406	-1924468.506	-7.838E-05	1.085E-03				
7088.800	1.658	3.406	-1924450.806	-8.506E-05	9.728E-04				
7098.800	1.711	3.406	-1924432.739	-7.473E-05	1.020E-03				
7108.800	1.697	3.406	-1924415.039	-8.446E-05	1.119E-03				
7118.800	1.556	3.406	-1924396.729	-9.296E-05	1.084E-03				
7126.200	1.425	3.406	-1924383.423	-8.506E-05	1.083E-03				
7126.400	-498.078	3.363	-1924483.032	-7.595E-05	1.054E-03				
7126.800	-498.103	3.362	-1924682.251	-6.562E-05	1.119E-03				
7127.600	-498.365	3.361	-1925080.933	-8.567E-05	1.086E-03				
7129.200	-498.253	3.360	-1925878.052	-9.418E-05	9.709E-04				
7132.400	-498.329	3.359	-1927472.900	-9.235E-05	1.058E-03				
7138.000	-498.312	3.357	-1930264.282	-7.473E-05	1.049E-03				
7144.400	-498.312	3.355	-1933453.613	-1.003E-04	1.010E-03				
7152.400	-498.290	3.353	-1937439.819	-8.263E-05	1.103E-03				
7161.400	-498.433	3.351	-1941925.537	-9.175E-05	1.069E-03				
7171.400	-498.338	3.349	-1946909.668	-8.324E-05	1.105E-03				
7180.200	-498.331	3.348	-1951296.265	-9.904E-05	1.114E-03				
7180.400	1.259	3.391	-1951296.021	-9.782E-05	1.182E-03				
7180.800	1.614	3.391	-1951295.288	-9.479E-05	1.073E-03				
7181.600	1.546	3.392	-1951293.945	-9.235E-05	9.989E-04				
7183.200	1.663	3.393	-1951291.016	-8.020E-05	1.091E-03				
7186.400	1.643	3.393	-1951285.156	-7.960E-05	1.076E-03				
7192.800	1.823	3.395	-1951273.438	-1.003E-04	1.128E-03				
7202.800	1.716	3.396	-1951255.127	-7.960E-05	1.009E-03				
7212.800	1.658	3.396	-1951236.938	-9.235E-05	1.084E-03				
7222.800	1.614	3.397	-1951219.116	-9.418E-05	9.788E-04				
7232.800	1.600	3.397	-1951201.294	-8.689E-05	1.054E-03				
7242.800	1.741	3.398	-1951183.105	-9.722E-05	1.024E-03				
7252.800	1.600	3.398	-1951165.405	-1.003E-04	1.072E-03				
7262.800	1.634	3.398	-1951147.461	-8.628E-05	1.075E-03				
7272.800	1.901	3.398	-1951130.127	-8.385E-05	1.139E-03				
7282.800	1.619	3.398	-1951111.938	-9.296E-05	1.025E-03				
7292.800	1.648	3.398	-1951093.872	-8.689E-05	1.159E-03				
7300.200	1.687	3.398	-1951081.055	-6.623E-05	1.058E-03				
7300.400	1250.339	3.506	-1950830.933	-8.749E-05	1.115E-03				
7300.800	1251.126	3.507	-1950330.566	-8.324E-05	1.136E-03				
7301.600	1251.321	3.509	-1949329.590	-9.175E-05	1.035E-03				
7303.000	1251.345	3.511	-1947577.881	-8.567E-05	9.564E-04				
7304.600	1251.175	3.513	-1945575.928	-7.230E-05	1.106E-03				
7306.600	1251.355	3.516	-1943073.364	-1.021E-04	1.080E-03				
7309.000	1251.554	3.518	-1940070.190	-8.263E-05	1.018E-03				
7311.600	1251.433	3.520	-1936816.528	-7.716E-05	1.043E-03				
7314.600	1251.520	3.522	-1933062.744	-7.230E-05	1.040E-03				
7317.800	1251.403	3.524	-1929058.594	-8.749E-05	1.061E-03				
7321.800	1251.364	3.526	-1924053.589	-7.352E-05	1.138E-03				
7322.000	2.669	3.419	-1924053.101	-1.021E-04	1.037E-03				
7322.400	1.901	3.418	-1924052.368	-8.871E-05	1.015E-03				
7323.200	1.609	3.416	-1924050.903	-9.235E-05	1.027E-03				
7324.800	1.580	3.415	-1924047.974	-7.899E-05	1.114E-03				
7328.000	1.653	3.413	-1924042.114	-7.413E-05	1.030E-03				
7334.400	1.585	3.411	-1924030.884	-8.385E-05	1.015E-03				
7344.400	1.415	3.410	-1924013.550	-8.628E-05	1.148E-03				
7354.400	1.556	3.409	-1923997.070	-8.871E-05	1.010E-03				
7364.400	1.434	3.408	-1923980.225	-9.053E-05	1.173E-03				
7374.400	1.536	3.408	-1923963.257	-9.600E-05	1.181E-03				
7384.400	1.765	3.407	-1923946.289	-8.020E-05	1.111E-03				
7394.400	1.556	3.407	-1923928.711	-9.296E-05	1.156E-03				
7404.400	1.721	3.407	-1923911.011	-9.418E-05	1.011E-03				
7414.400	1.604	3.407	-1923893.799	-9.114E-05	1.071E-03				
7424.400	1.707	3.407	-1923876.465	-8.142E-05	1.030E-03				
7434.400	1.546	3.407	-1923858.276	-8.506E-05	1.063E-03				
7441.800	1.779	3.406	-1923844.727	-6.623E-05	1.154E-03				
7442.000	-1247.336	3.299	-1924094.238	-8.324E-05	1.117E-03				
7442.400	-1248.007	3.298	-1924593.506	-6.684E-05	1.074E-03				
7443.200	-1248.134	3.296	-1925592.041	-8.081E-05	1.059E-03				
7444.600	-1248.238	3.294	-1927339.478	-9.053E-05	1.091E-03				
7446.200	-1248.430	3.292	-1929336.548	-8.020E-05	1.070E-03				
7448.200	-1248.175	3.289	-1931833.130	-6.987E-05	1.105E-03				
7450.400	-1248.328	3.287	-1934579.102	-7.473E-05	1.042E-03				
7452.800	-1248.212	3.285	-1937574.707	-6.258E-05	1.023E-03				
7455.400	-1248.294	3.283	-1940819.946	-7.413E-05	1.153E-03				
7458.200	-1248.326	3.281	-1944314.819	-7.048E-05	1.097E-03				
7461.400	-1248.374	3.279	-1948309.082	-8.020E-05	1.105E-03				
7463.400	-1248.530	3.278	-1950805.664	-6.987E-05	9.843E-04				
7463.600	0.817	3.386	-1950805.542	-6.562E-05	1.081E-03				
7464.000	1.264	3.387	-1950805.054	-8.628E-05	1.109E-03				
7464.800	1.726	3.388	-1950803.833	-8.081E-05	1.026E-03				
7466.400	1.619	3.390	-1950801.025	-7.109E-05	1.035E-03				
7469.600	1.711	3.392	-1950795.288	-8.263E-05	1.044E-03				
7475.600	1.775	3.394	-1950784.546	-6.501E-05	1.107E-03				
7482.000	1.643	3.395	-1950772.949	-7.716E-05	1.123E-03				
7492.000	1.745	3.396	-1950754.639	-8.567E-05	1.068E-03				
7502.000	1.721	3.397	-1950736.450	-7.170E-05	1.147E-03				
7512.000	1.532	3.397	-1950718.506	-8.081E-05	1.152E-03				
7522.000	1.638	3.398	-1950700.928	-8.263E-05	1.137E-03				
7532.000	1.707	3.398	-1950682.861	-7.109E-05	1.170E-03				
7542.000	1.702	3.398	-1950664.673	-7.595E-05	9.096E-04				
7552.000	1.818	3.399	-1950646.362	-7.170E-05	1.100E-03				
7562.000	1.561	3.399	-1950628.052	-8.263E-05	1.076E-03				
7572.000	1.434	3.399	-1950610.596	-7.473E-05	1.068E-03				
7582.000	1.663	3.399	-1950592.285	-7.413E-05	9.946E-04				
7583.400	1.765	3.399	-1950589.722	-8.628E-05	1.117E-03				
7583.600	2498.747	3.615	-1950089.966	-9.357E-05	1.009E-03				
7584.000	2500.609	3.617	-1949089.844	-8.567E-05	9.965E-04				
7584.600	2501.027	3.620	-1947589.233	-8.142E-05	1.179E-03				
7585.200	2501.363	3.622	-1946088.501	-9.235E-05	1.010E-03				
7586.000	2501.231	3.624	-1944087.524	-7.960E-05	1.052E-03				
7586.800	2501.334	3.626	-1942086.548	-9.175E-05	1.026E-03				
7587.800	2501.411	3.628	-1939585.327	-8.142E-05	1.013E-03				
7588.800	2501.421	3.630	-1937084.106	-9.296E-05	1.076E-03				
7590.000	2501.489	3.633	-1934082.642	-8.749E-05	1.065E-03				
7591.400	2501.382	3.635	-1930580.933	-9.722E-05	1.062E-03				
7592.800	2501.450	3.637	-1927079.224	-9.600E-05	1.029E-03				
7594.200	2501.387	3.639	-1923577.393	-9.175E-05	1.047E-03				
7594.400	3.676	3.424	-1923576.660	-6.258E-05	1.052E-03				
7594.800	2.334	3.423	-1923575.684	-7.656E-05	1.143E-03				
7595.600	1.974	3.421	-1923574.219	-8.324E-05	1.023E-03				
7597.000	1.838	3.418	-1923571.655	-9.600E-05	1.051E-03				
7598.600	1.638	3.417	-1923568.726	-8.385E-05	1.120E-03				
7601.800	1.784	3.415	-1923562.866	-1.094E-04	1.125E-03				
7607.200	1.731	3.413	-1923553.223	-8.020E-05	1.171E-03				
7613.600	1.634	3.411	-1923541.626	-9.053E-05	1.009E-03				
7623.600	1.648	3.410	-1923523.438	-8.324E-05	1.052E-03				
7633.600	1.682	3.409	-1923505.615	-8.081E-05	9.715E-04				
7643.600	1.449	3.408	-1923488.525	-7.595E-05	1.098E-03				
7653.600	1.731	3.408	-1923470.581	-8.385E-05	1.014E-03				
7663.600	1.702	3.408	-1923452.271	-6.744E-05	1.084E-03				
7673.600	1.386	3.408	-1923435.547	-8.263E-05	1.056E-03				
7683.600	1.483	3.407	-1923419.189	-8.263E-05	1.043E-03				
7693.600	1.590	3.407	-1923403.198	-7.838E-05	9.448E-04				
7703.600	1.619	3.407	-1923385.498	-1.033E-04	1.047E-03				
7713.600	1.877	3.407	-1923367.310	-8.628E-05	1.120E-03				
7714.200	1.726	3.407	-1923366.211	-7.352E-05	1.068E-03				
7714.400	-2495.942	3.192	-1923865.356	-5.347E-05	1.213E-03				
7714.800	-2497.505	3.189	-1924864.258	-6.380E-05	1.131E-03				
7715.400	-2497.889	3.186	-1926362.915	-7.352E-05	1.073E-03				
7716.000	-2498.236	3.184	-1927861.816	-6.258E-05	1.156E-03				
7716.800	-2498.120	3.181	-1929860.352	-7.109E-05	1.132E-03				
7717.600	-2498.127	3.179	-1931858.887	-7.534E-05	1.001E-03				
7718.400	-2498.251	3.177	-1933857.422	-8.567E-05	1.097E-03				
7719.400	-2498.239	3.175	-1936355.591	-7.777E-05	1.173E-03				
7720.400	-2498.300	3.172	-1938853.760	-8.263E-05	1.113E-03				
7721.400	-2498.210	3.170	-1941351.929	-8.203E-05	1.075E-03				
7722.600	-2498.339	3.168	-1944349.731	-5.225E-05	1.055E-03				
7723.800	-2498.183	3.166	-1947347.534	-6.805E-05	1.170E-03				
7725.000	-2498.239	3.164	-1950345.337	-6.441E-05	1.123E-03				
7725.200	-0.156	3.380	-1950345.337	-9.904E-05	1.007E-03				
7725.600	1.099	3.382	-1950344.849	-8.203E-05	9.746E-04				
7726.400	1.391	3.385	-1950343.872	-9.965E-05	1.017E-03				
7727.600	1.770	3.387	-1950342.041	-8.749E-05	1.114E-03				
7729.200	1.527	3.389	-1950339.478	-9.053E-05	9.114E-04				
7732.000	1.600	3.391	-1950334.961	-8.567E-05	9.886E-04				
7735.200	1.736	3.392	-1950329.102	-9.965E-05	1.065E-03				
7741.600	1.702	3.394	-1950318.237	-9.053E-05	1.097E-03				
7751.600	1.570	3.396	-1950300.781	-8.628E-05	1.111E-03				
7761.600	1.522	3.397	-1950283.325	-9.235E-05	9.594E-04				
7771.600	1.682	3.398	-1950265.625	-8.081E-05	1.051E-03				
7781.600	1.663	3.398	-1950247.681	-9.357E-05	1.103E-03				
7791.600	1.517	3.399	-1950232.422	-8.203E-05	1.060E-03				
7801.600	1.619	3.399	-1950216.919	-8.749E-05	1.057E-03				
7811.600	1.546	3.399	-1950199.707	-8.081E-05	9.509E-04				
7821.600	1.614	3.399	-1950182.495	-7.534E-05	1.061E-03				
7831.600	1.862	3.399	-1950164.429	-8.020E-05	1.074E-03				
7841.600	1.702	3.400	-1950146.240	-8.932E-05	1.019E-03				
7845.000	1.770	3.400	-1950140.015	-8.810E-05	1.040E-03				
7845.200	4976.121	3.832	-1949144.775	-9.357E-05	9.685E-04				
7845.400	4977.915	3.834	-1948149.170	-9.965E-05	1.161E-03				
7845.800	4976.953	3.837	-1946158.325	-9.661E-05	1.055E-03				
7846.200	4976.422	3.840	-1944167.725	-9.843E-05	1.054E-03				
7846.600	4975.931	3.843	-1942177.246	-9.114E-05	1.094E-03				
7847.000	4975.435	3.845	-1940187.012	-8.020E-05	1.106E-03				
7847.400	4975.134	3.847	-1938196.899	-9.114E-05	1.089E-03				
7847.800	4974.760	3.850	-1936206.909	-9.175E-05	1.081E-03				
7848.400	4974.448	3.852	-1933222.290	-1.009E-04	1.099E-03				
7849.000	4974.225	3.855	-1930237.671	-1.039E-04	1.069E-03				
7849.600	4974.060	3.858	-1927253.296	-9.418E-05	1.014E-03				
7850.200	4973.914	3.860	-1924269.043	-1.003E-04	1.101E-03				
7850.400	4973.918	3.861	-1923274.292	-1.088E-04	9.551E-04				
7850.600	5.795	3.431	-1923273.193	-8.992E-05	1.097E-03				
7851.000	2.796	3.428	-1923271.851	-9.904E-05	1.112E-03				
7851.600	2.280	3.425	-1923270.386	-9.843E-05	1.048E-03				
7852.400	1.886	3.423	-1923268.799	-7.899E-05	1.005E-03				
7853.600	1.886	3.421	-1923266.602	-7.109E-05	1.009E-03				
7855.200	1.828	3.419	-1923263.672	-7.413E-05	1.111E-03				
7857.800	1.726	3.417	-1923258.911	-9.053E-05	1.061E-03				
7861.000	1.638	3.415	-1923253.052	-6.866E-05	1.075E-03				
7866.800	1.711	3.413	-1923242.432	-7.473E-05	1.063E-03				
7873.200	1.575	3.411	-1923230.713	-8.749E-05	1.113E-03				
7883.200	1.692	3.410	-1923213.013	-8.263E-05	1.143E-03				
7893.200	1.658	3.409	-1923194.824	-9.418E-05	1.122E-03				
7903.200	1.653	3.409	-1923176.758	-7.352E-05	1.013E-03				
7913.200	1.789	3.408	-1923158.569	-8.324E-05	1.126E-03				
7923.200	1.629	3.408	-1923140.259	-7.170E-05	1.014E-03				
7933.200	1.663	3.408	-1923121.948	-8.992E-05	1.081E-03				
7943.200	1.561	3.408	-1923104.370	-8.385E-05	1.020E-03				
7953.200	1.629	3.408	-1923086.182	-9.722E-05	1.130E-03				
7963.200	1.585	3.408	-1923068.115	-7.170E-05	1.026E-03				
7970.400	1.648	3.407	-1923055.664	-7.534E-05	1.153E-03				
7970.600	-4960.349	2.978	-1924047.729	-7.352E-05	1.075E-03				
7970.800	-4961.820	2.975	-1925040.039	-7.291E-05	1.028E-03				
7971.000	-4961.401	2.973	-1926032.349	-6.623E-05	1.101E-03				
7971.400	-4960.633	2.969	-1928016.724	-6.744E-05	1.029E-03				
7971.800	-4959.940	2.966	-1930000.732	-7.048E-05	1.034E-03				
7972.200	-4959.172	2.963	-1931984.497	-8.628E-05	9.898E-04				
7972.600	-4958.477	2.960	-1933967.896	-7.170E-05	1.081E-03				
7973.000	-4958.147	2.957	-1935951.172	-7.960E-05	1.018E-03				
7973.400	-4957.658	2.955	-1937934.326	-8.203E-05	1.000E-03				
7973.800	-4957.252	2.952	-1939917.236	-7.777E-05	9.983E-04				
7974.200	-4956.858	2.950	-1941899.902	-1.033E-04	1.062E-03				
7974.600	-4956.352	2.947	-1943882.446	-7.291E-05	1.052E-03				
7975.000	-4956.038	2.945	-1945864.868	-7.777E-05	1.035E-03				
7975.400	-4955.728	2.943	-1947847.168	-7.473E-05	9.491E-04				
7975.800	-4955.324	2.941	-1949829.346	-6.501E-05	1.028E-03				
7976.000	-1.925	3.374	-1949829.712	-8.749E-05	1.126E-03				
7976.200	0.107	3.376	-1949829.712	-8.203E-05	1.208E-03				
7976.600	0.977	3.379	-1949829.346	-6.866E-05	1.077E-03				
7977.200	1.235	3.381	-1949828.613	-7.352E-05	1.080E-03				
7978.000	1.347	3.384	-1949827.637	-5.711E-05	9.892E-04				
7979.000	1.322	3.386	-1949826.416	-9.539E-05	1.111E-03				
7980.600	1.614	3.388	-1949824.097	-7.473E-05	9.983E-04				
7982.800	1.600	3.390	-1949820.923	-9.175E-05	1.047E-03				
7986.000	1.707	3.392	-1949815.552	-7.838E-05	1.120E-03				
7991.400	1.478	3.394	-1949807.495	-9.175E-05	1.003E-03				
7997.800	1.459	3.396	-1949796.753	-8.203E-05	1.072E-03				
8007.800	1.634	3.397	-1949781.616	-8.081E-05	1.111E-03				
8017.800	1.711	3.398	-1949765.137	-6.562E-05	1.025E-03				
8027.800	1.570	3.398	-1949750.244	-9.600E-05	1.191E-03				
8037.800	1.449	3.399	-1949734.985	-7.960E-05	1.013E-03				
8047.800	1.551	3.399	-1949717.773	-8.020E-05	1.105E-03				
8057.800	1.454	3.400	-1949700.439	-7.838E-05	1.087E-03				
8067.800	1.697	3.400	-1949682.373	-9.539E-05	9.715E-04				
8077.800	1.687	3.400	-1949665.161	-9.479E-05	9.643E-04				
8087.800	1.638	3.400	-1949648.315	-9.235E-05	1.113E-03				
8095.800	1.546	3.400	-1949634.644	-8.020E-05	1.156E-03				
