time /s	I /mA	E /V	Q /mC	An In 1	An In 2	Rs	Cs	Zab	Phase
0.200	-99.025	4.154	-19.805	-1.015E-04	9.928E-04				
0.600	-99.033	4.154	-59.400	-8.567E-05	1.126E-03				
1.400	-99.008	4.154	-138.575	-1.167E-04	1.077E-03				
3.000	-98.884	4.153	-296.744	-1.088E-04	8.822E-04				
6.200	-98.953	4.153	-613.065	-1.063E-04	1.048E-03				
12.600	-98.731	4.152	-1245.369	-9.479E-05	1.085E-03				
22.600	-98.692	4.152	-2232.070	-1.148E-04	9.691E-04				
32.600	-98.406	4.152	-3217.619	-1.112E-04	1.049E-03				
42.600	-98.675	4.151	-4203.032	-1.057E-04	9.576E-04				
52.600	-98.420	4.151	-5187.536	-1.203E-04	9.308E-04				
62.600	-98.607	4.150	-6172.262	-8.203E-05	1.053E-03				
72.600	-98.350	4.150	-7156.028	-7.534E-05	1.487E-03				
82.600	-98.588	4.150	-8139.956	-1.039E-04	1.196E-03				
92.600	-98.420	4.149	-9124.051	-1.136E-04	1.266E-03				
102.600	-98.440	4.149	-10107.848	-1.015E-04	9.691E-04				
112.600	-98.413	4.149	-11091.784	-7.716E-05	1.037E-03				
122.600	-98.415	4.148	-12075.613	-8.749E-05	1.028E-03				
132.600	-98.240	4.148	-13059.134	-1.033E-04	1.081E-03				
142.600	-98.418	4.148	-14042.806	-9.722E-05	1.236E-03				
152.600	-98.427	4.147	-15026.902	-8.689E-05	1.154E-03				
162.600	-98.257	4.147	-16010.038	-9.722E-05	9.867E-04				
172.600	-98.080	4.147	-16992.466	-1.106E-04	1.052E-03				
182.600	-98.248	4.146	-17974.857	-7.960E-05	1.219E-03				
192.600	-98.299	4.146	-18957.018	-9.843E-05	9.819E-04				
202.600	-98.145	4.146	-19939.917	-9.722E-05	9.886E-04				
212.600	-98.148	4.145	-20922.791	-9.600E-05	1.117E-03				
222.600	-98.294	4.145	-21905.722	-8.810E-05	1.209E-03				
232.600	-98.342	4.145	-22888.651	-7.656E-05	1.090E-03				
242.600	-98.391	4.144	-23871.561	-1.227E-04	9.910E-04				
252.600	-98.461	4.144	-24854.347	-8.871E-05	1.036E-03				
262.600	-98.393	4.144	-25837.421	-1.057E-04	9.412E-04				
272.600	-98.201	4.144	-26820.200	-8.871E-05	1.100E-03				
282.600	-98.328	4.143	-27803.041	-8.689E-05	8.944E-04				
292.600	-98.196	4.143	-28785.561	-1.082E-04	8.294E-04				
302.600	-98.306	4.143	-29768.204	-8.567E-05	1.330E-03				
312.600	-98.206	4.142	-30750.772	-1.142E-04	9.260E-04				
322.600	-98.136	4.142	-31732.876	-5.529E-05	1.290E-03				
332.600	-98.177	4.142	-32714.539	-1.100E-04	7.370E-04				
342.600	-98.121	4.142	-33696.106	-8.871E-05	1.360E-03				
352.600	-98.099	4.141	-34677.216	-8.871E-05	1.183E-03				
362.600	-98.128	4.141	-35658.371	-9.600E-05	1.288E-03				
372.600	-98.233	4.141	-36640.358	-8.081E-05	1.097E-03				
382.600	-98.226	4.141	-37622.787	-8.749E-05	1.097E-03				
392.600	-98.282	4.140	-38604.980	-8.810E-05	9.460E-04				
402.600	-98.226	4.140	-39587.029	-8.749E-05	1.008E-03				
412.600	-98.357	4.140	-40569.767	-1.015E-04	1.017E-03				
422.600	-98.148	4.140	-41552.330	-9.235E-05	1.103E-03				
432.600	-98.296	4.139	-42534.359	-8.567E-05	1.018E-03				
442.600	-98.167	4.139	-43516.991	-9.843E-05	1.058E-03				
452.600	-98.170	4.139	-44498.501	-1.075E-04	1.006E-03				
462.600	-98.235	4.138	-45479.919	-8.810E-05	1.004E-03				
472.600	-98.087	4.138	-46460.949	-6.927E-05	1.247E-03				
482.600	-98.087	4.138	-47442.047	-7.656E-05	1.268E-03				
492.600	-98.111	4.138	-48423.210	-8.263E-05	1.122E-03				
502.600	-98.158	4.137	-49404.270	-1.051E-04	9.679E-04				
512.600	-98.182	4.137	-50385.849	-8.689E-05	1.043E-03				
522.600	-98.155	4.137	-51367.424	-9.053E-05	1.029E-03				
532.600	-98.235	4.137	-52349.262	-9.722E-05	1.016E-03				
542.600	-98.077	4.136	-53331.230	-8.142E-05	1.079E-03				
552.600	-98.121	4.136	-54312.622	-8.324E-05	1.179E-03				
562.600	-97.985	4.136	-55293.663	-9.843E-05	1.143E-03				
572.600	-98.104	4.136	-56275.005	-8.628E-05	1.269E-03				
582.600	-98.177	4.135	-57256.435	-7.899E-05	1.000E-03				
592.600	-98.257	4.135	-58238.350	-9.600E-05	1.061E-03				
602.600	-98.043	4.135	-59219.696	-9.661E-05	1.009E-03				
612.600	-98.121	4.135	-60201.012	-8.871E-05	9.940E-04				
622.600	-98.124	4.135	-61182.354	-8.385E-05	1.109E-03				
632.600	-98.007	4.134	-62163.658	-8.932E-05	1.083E-03				
642.600	-98.002	4.134	-63144.840	-9.782E-05	1.072E-03				
652.600	-98.274	4.134	-64126.160	-8.628E-05	1.059E-03				
662.600	-98.075	4.134	-65107.681	-1.033E-04	9.764E-04				
672.600	-98.104	4.133	-66089.088	-9.235E-05	1.103E-03				
682.600	-98.119	4.133	-67070.389	-8.203E-05	1.141E-03				
692.600	-98.291	4.133	-68052.330	-9.053E-05	9.782E-04				
702.600	-98.102	4.133	-69033.516	-9.114E-05	1.025E-03				
712.600	-97.997	4.132	-70014.893	-1.033E-04	1.147E-03				
722.600	-98.206	4.132	-70995.796	-8.871E-05	1.083E-03				
732.600	-97.997	4.132	-71976.357	-8.871E-05	1.077E-03				
742.600	-98.155	4.132	-72957.451	-9.904E-05	1.067E-03				
752.600	-98.116	4.131	-73938.705	-1.033E-04	1.026E-03				
762.600	-98.145	4.131	-74920.219	-7.291E-05	1.038E-03				
772.600	-98.138	4.131	-75901.154	-9.418E-05	1.043E-03				
782.600	-98.038	4.131	-76881.958	-8.871E-05	1.048E-03				
792.600	-98.155	4.131	-77863.266	-7.291E-05	1.203E-03				
802.600	-98.294	4.130	-78844.696	-9.175E-05	1.072E-03				
812.600	-98.087	4.130	-79826.019	-9.114E-05	9.807E-04				
822.600	-98.048	4.130	-80806.610	-9.965E-05	1.187E-03				
832.600	-98.162	4.130	-81787.872	-7.838E-05	1.091E-03				
842.600	-98.082	4.129	-82769.127	-7.048E-05	1.201E-03				
852.600	-98.189	4.129	-83750.618	-9.479E-05	1.072E-03				
862.600	-98.177	4.129	-84732.498	-8.142E-05	1.198E-03				
872.600	-98.087	4.129	-85713.867	-9.175E-05	1.012E-03				
882.600	-98.233	4.129	-86694.885	-7.716E-05	1.102E-03				
892.600	-98.267	4.128	-87675.735	-9.539E-05	1.051E-03				
902.600	-98.104	4.128	-88657.272	-1.045E-04	1.099E-03				
912.600	-98.034	4.128	-89638.557	-8.628E-05	1.106E-03				
922.600	-97.876	4.128	-90619.324	-8.567E-05	1.111E-03				
932.600	-98.175	4.128	-91600.807	-9.175E-05	1.074E-03				
942.600	-98.136	4.127	-92582.146	-7.656E-05	1.136E-03				
952.600	-98.153	4.127	-93564.262	-9.600E-05	1.039E-03				
962.600	-98.192	4.127	-94545.525	-9.418E-05	9.497E-04				
972.600	-98.245	4.127	-95526.558	-8.446E-05	1.157E-03				
982.600	-98.209	4.126	-96507.919	-1.075E-04	1.003E-03				
992.600	-98.192	4.126	-97489.685	-9.114E-05	1.125E-03				
1002.600	-98.131	4.126	-98471.649	-8.203E-05	1.045E-03				
1012.600	-98.408	4.126	-99454.048	-7.656E-05	1.108E-03				
1022.600	-98.167	4.126	-100436.302	-1.027E-04	1.193E-03				
1032.600	-98.116	4.125	-101417.740	-8.446E-05	9.539E-04				
1042.600	-98.128	4.125	-102399.063	-8.810E-05	1.069E-03				
1052.600	-98.036	4.125	-103380.531	-1.069E-04	1.005E-03				
1062.600	-98.223	4.125	-104361.832	-1.033E-04	1.041E-03				
1072.600	-98.124	4.125	-105342.964	-9.904E-05	1.116E-03				
1082.600	-98.077	4.124	-106324.600	-9.296E-05	1.159E-03				
1092.600	-98.187	4.124	-107306.175	-8.081E-05	1.107E-03				
1102.600	-98.216	4.124	-108287.796	-1.009E-04	1.007E-03				
1112.600	-98.126	4.124	-109269.302	-8.932E-05	1.053E-03				
1122.600	-98.204	4.124	-110251.076	-8.324E-05	1.120E-03				
1132.600	-98.094	4.123	-111231.972	-1.033E-04	9.691E-04				
1142.600	-98.235	4.123	-112213.989	-8.992E-05	1.154E-03				
1152.600	-98.184	4.123	-113196.205	-8.506E-05	1.143E-03				
1162.600	-98.311	4.123	-114178.009	-1.021E-04	1.005E-03				
1172.600	-98.107	4.123	-115159.546	-8.567E-05	1.044E-03				
1182.600	-98.160	4.122	-116141.792	-9.843E-05	1.102E-03				
1192.600	-98.085	4.122	-117124.290	-8.142E-05	1.026E-03				
1202.600	-98.162	4.122	-118106.804	-8.749E-05	1.107E-03				
1212.600	-98.335	4.122	-119089.394	-9.053E-05	1.052E-03				
1222.600	-98.192	4.122	-120071.800	-9.843E-05	1.100E-03				
1232.600	-98.034	4.122	-121053.337	-7.109E-05	1.020E-03				
1242.600	-98.352	4.121	-122035.164	-8.142E-05	1.173E-03				
1252.600	-98.359	4.121	-123017.448	-8.749E-05	1.044E-03				
1262.600	-98.175	4.121	-123999.893	-7.595E-05	1.095E-03				
1272.600	-98.206	4.121	-124981.918	-9.053E-05	1.144E-03				
1282.600	-98.248	4.121	-125963.905	-9.418E-05	1.171E-03				
1292.600	-98.189	4.120	-126945.663	-9.539E-05	9.150E-04				
1302.600	-98.051	4.120	-127927.498	-9.175E-05	1.019E-03				
1312.600	-97.900	4.120	-128908.524	-9.782E-05	1.117E-03				
1322.600	-98.347	4.120	-129890.701	-7.838E-05	1.092E-03				
1332.600	-98.172	4.120	-130873.047	-1.239E-04	9.558E-04				
1342.600	-98.172	4.119	-131855.118	-8.324E-05	1.042E-03				
1352.600	-98.260	4.119	-132837.128	-9.904E-05	1.167E-03				
1362.600	-98.058	4.119	-133819.153	-7.899E-05	1.111E-03				
1372.600	-98.233	4.119	-134801.193	-9.843E-05	1.190E-03				
1382.600	-98.158	4.119	-135783.127	-9.661E-05	1.094E-03				
1392.600	-98.002	4.119	-136764.679	-9.600E-05	9.758E-04				
1402.600	-98.216	4.118	-137746.475	-9.600E-05	1.112E-03				
1412.600	-98.068	4.118	-138728.210	-9.235E-05	9.345E-04				
1422.600	-98.347	4.118	-139709.793	-8.324E-05	1.003E-03				
1432.600	-98.179	4.118	-140691.727	-8.203E-05	1.191E-03				
1442.600	-98.325	4.118	-141673.553	-9.661E-05	1.095E-03				
1452.600	-98.211	4.117	-142655.426	-9.722E-05	1.105E-03				
1462.600	-98.194	4.117	-143637.329	-9.418E-05	1.068E-03				
1472.600	-98.068	4.117	-144619.446	-8.506E-05	1.059E-03				
1482.600	-98.359	4.117	-145601.746	-9.965E-05	1.052E-03				
1492.600	-98.267	4.117	-146584.381	-8.992E-05	1.095E-03				
1502.600	-98.432	4.117	-147567.093	-1.039E-04	1.056E-03				
1512.600	-98.311	4.116	-148550.125	-1.051E-04	9.831E-04				
1522.600	-98.384	4.116	-149533.005	-9.114E-05	1.085E-03				
1532.600	-98.233	4.116	-150515.213	-8.932E-05	1.072E-03				
1542.600	-98.209	4.116	-151498.276	-9.357E-05	1.073E-03				
1552.600	-98.277	4.116	-152481.522	-8.871E-05	1.204E-03				
1562.600	-98.401	4.116	-153464.600	-1.100E-04	1.045E-03				
1572.600	-98.269	4.115	-154447.662	-9.661E-05	1.095E-03				
1582.600	-98.316	4.115	-155430.710	-9.053E-05	1.089E-03				
1592.600	-98.255	4.115	-156413.010	-9.539E-05	1.098E-03				
1602.600	-98.080	4.115	-157394.974	-9.722E-05	1.021E-03				
1612.600	-98.204	4.115	-158376.740	-9.600E-05	1.135E-03				
1622.600	-98.255	4.115	-159358.932	-9.235E-05	9.667E-04				
1632.600	-98.031	4.114	-160340.485	-1.039E-04	1.162E-03				
1642.600	-98.194	4.114	-161322.311	-9.296E-05	1.088E-03				
1652.600	-98.335	4.114	-162304.611	-1.069E-04	1.041E-03				
1662.600	-98.209	4.114	-163286.682	-9.296E-05	1.025E-03				
1672.600	-98.138	4.114	-164268.524	-7.413E-05	1.107E-03				
1682.600	-98.124	4.114	-165250.168	-9.235E-05	1.134E-03				
1692.600	-98.274	4.113	-166231.934	-8.081E-05	1.114E-03				
1702.600	-98.141	4.113	-167214.005	-8.263E-05	1.134E-03				
1712.600	-98.143	4.113	-168196.014	-7.777E-05	1.119E-03				
1722.600	-98.012	4.113	-169177.567	-1.045E-04	1.141E-03				
1732.600	-98.150	4.113	-170158.829	-9.296E-05	9.114E-04				
1742.600	-98.031	4.113	-171139.954	-7.716E-05	1.091E-03				
1752.600	-98.107	4.112	-172121.704	-9.722E-05	1.060E-03				
1762.600	-98.128	4.112	-173103.577	-7.109E-05	1.147E-03				
1772.600	-98.206	4.112	-174085.922	-9.782E-05	1.050E-03				
1782.600	-98.021	4.112	-175067.444	-9.235E-05	1.083E-03				
1792.600	-98.114	4.112	-176048.843	-1.033E-04	1.038E-03				
1802.600	-98.090	4.112	-177030.029	-8.749E-05	1.068E-03				
1812.600	-98.158	4.111	-178011.368	-9.235E-05	1.159E-03				
1822.600	-98.320	4.111	-178993.301	-7.838E-05	1.151E-03				
1832.600	-98.187	4.111	-179975.235	-9.843E-05	1.233E-03				
1842.600	-98.189	4.111	-180957.458	-8.142E-05	1.092E-03				
1852.600	-98.172	4.111	-181939.804	-8.385E-05	1.124E-03				
1862.600	-98.221	4.111	-182921.616	-1.045E-04	9.357E-04				
1872.600	-98.119	4.111	-183903.717	-9.296E-05	1.076E-03				
1882.600	-98.192	4.110	-184885.239	-9.053E-05	1.042E-03				
1892.600	-98.119	4.110	-185866.516	-8.142E-05	1.052E-03				
1902.600	-98.248	4.110	-186848.114	-1.112E-04	1.057E-03				
1912.600	-98.179	4.110	-187830.292	-1.082E-04	1.056E-03				
1922.600	-98.216	4.110	-188812.698	-9.418E-05	1.074E-03				
1932.600	-98.124	4.110	-189794.220	-8.992E-05	1.098E-03				
1942.600	-98.009	4.110	-190775.986	-8.567E-05	1.010E-03				
1952.600	-98.136	4.109	-191757.736	-1.106E-04	1.139E-03				
1962.600	-98.182	4.109	-192739.609	-8.567E-05	1.167E-03				
1972.600	-98.167	4.109	-193721.725	-8.628E-05	1.100E-03				
1982.600	-98.148	4.109	-194703.033	-8.932E-05	1.081E-03				
1992.600	-98.175	4.109	-195683.975	-8.628E-05	1.057E-03				
2002.600	-98.175	4.109	-196665.329	-9.965E-05	1.081E-03				
2012.600	-98.282	4.108	-197647.278	-8.385E-05	1.079E-03				
2022.600	-98.403	4.108	-198629.318	-9.357E-05	1.073E-03				
2032.600	-98.119	4.108	-199611.176	-9.722E-05	1.084E-03				
2042.600	-98.206	4.108	-200593.307	-9.600E-05	1.078E-03				
2052.600	-98.267	4.108	-201575.104	-8.749E-05	1.137E-03				
2062.600	-98.330	4.108	-202557.175	-8.142E-05	1.143E-03				
2072.600	-98.162	4.108	-203538.879	-8.081E-05	1.040E-03				
2082.600	-98.077	4.107	-204520.691	-9.418E-05	1.138E-03				
2092.600	-98.119	4.107	-205502.609	-8.992E-05	1.210E-03				
2102.600	-98.128	4.107	-206484.634	-9.661E-05	1.024E-03				
2112.600	-98.257	4.107	-207466.980	-7.960E-05	1.032E-03				
2122.600	-98.418	4.107	-208449.387	-9.479E-05	1.141E-03				
2132.600	-98.325	4.107	-209431.946	-9.175E-05	9.387E-04				
2142.600	-98.126	4.107	-210413.986	-9.600E-05	1.065E-03				
2152.600	-98.277	4.106	-211395.767	-9.235E-05	1.052E-03				
2162.600	-98.250	4.106	-212377.533	-9.600E-05	1.156E-03				
2172.600	-98.286	4.106	-213359.222	-9.175E-05	1.023E-03				
2182.600	-98.206	4.106	-214341.263	-9.539E-05	1.168E-03				
2192.600	-98.167	4.106	-215323.090	-9.053E-05	1.060E-03				
2202.600	-98.204	4.106	-216305.878	-9.539E-05	1.181E-03				
2212.600	-98.265	4.106	-217288.101	-7.716E-05	9.995E-04				
2222.600	-98.075	4.105	-218270.157	-9.296E-05	1.072E-03				
2232.600	-98.148	4.105	-219252.502	-9.296E-05	1.077E-03				
2242.600	-98.325	4.105	-220234.802	-9.479E-05	1.083E-03				
2252.600	-98.284	4.105	-221216.995	-7.899E-05	1.049E-03				
2262.600	-98.092	4.105	-222198.807	-8.689E-05	9.782E-04				
2272.600	-98.182	4.105	-223180.298	-8.567E-05	1.061E-03				
2282.600	-98.184	4.105	-224162.216	-9.722E-05	9.509E-04				
2292.600	-98.109	4.105	-225144.379	-1.057E-04	1.032E-03				
2302.600	-98.282	4.104	-226126.434	-9.600E-05	1.004E-03				
2312.600	-98.121	4.104	-227108.734	-9.782E-05	1.043E-03				
2322.600	-98.196	4.104	-228090.775	-9.661E-05	9.539E-04				
2332.600	-98.235	4.104	-229072.311	-9.722E-05	1.226E-03				
2342.600	-98.187	4.104	-230054.092	-9.843E-05	1.142E-03				
2352.600	-98.221	4.104	-231035.461	-1.148E-04	1.069E-03				
2362.600	-98.094	4.104	-232016.769	-1.051E-04	1.057E-03				
2372.600	-98.335	4.103	-232998.718	-1.015E-04	1.119E-03				
2382.600	-98.213	4.103	-233981.140	-1.027E-04	1.023E-03				
2392.600	-98.211	4.103	-234962.860	-7.777E-05	1.130E-03				
2402.600	-98.141	4.103	-235944.092	-7.716E-05	1.125E-03				
2412.600	-98.145	4.103	-236925.797	-1.015E-04	1.076E-03				
2422.600	-98.320	4.103	-237907.257	-1.027E-04	1.055E-03				
2432.600	-98.187	4.103	-238889.359	-8.749E-05	1.082E-03				
2442.600	-98.398	4.103	-239871.597	-8.810E-05	1.090E-03				
2452.600	-98.087	4.103	-240854.034	-8.446E-05	1.101E-03				
2462.600	-98.481	4.102	-241836.716	-9.843E-05	1.141E-03				
2472.600	-98.393	4.102	-242820.724	-9.782E-05	1.095E-03				
2482.600	-98.481	4.102	-243804.596	-9.114E-05	1.058E-03				
2492.600	-98.430	4.102	-244788.361	-1.027E-04	1.094E-03				
2502.600	-98.372	4.102	-245771.927	-1.009E-04	1.058E-03				
2512.600	-98.359	4.102	-246755.295	-9.843E-05	1.084E-03				
2522.600	-98.333	4.102	-247738.708	-8.203E-05	1.042E-03				
2532.600	-98.167	4.101	-248722.046	-8.567E-05	1.101E-03				
2542.600	-98.250	4.101	-249705.170	-1.015E-04	1.031E-03				
2552.600	-98.352	4.101	-250688.370	-8.689E-05	1.106E-03				
2562.600	-98.255	4.101	-251671.326	-9.114E-05	1.068E-03				
2572.600	-98.279	4.101	-252653.885	-7.838E-05	1.059E-03				
2582.600	-98.515	4.101	-253636.917	-9.296E-05	1.218E-03				
2592.600	-98.223	4.101	-254619.827	-1.033E-04	1.071E-03				
2602.600	-98.238	4.101	-255603.012	-7.777E-05	1.061E-03				
2612.600	-98.235	4.101	-256585.785	-9.175E-05	1.045E-03				
2622.600	-98.294	4.100	-257568.176	-9.053E-05	1.013E-03				
2632.600	-98.162	4.100	-258550.598	-9.418E-05	1.060E-03				
2642.600	-98.201	4.100	-259533.051	-7.960E-05	1.063E-03				
2652.600	-98.216	4.100	-260515.778	-8.203E-05	9.855E-04				
2662.600	-98.269	4.100	-261498.535	-9.418E-05	1.131E-03				
2672.600	-98.119	4.100	-262481.201	-1.112E-04	1.023E-03				
2682.600	-98.369	4.100	-263464.417	-8.932E-05	1.010E-03				
2692.600	-98.333	4.099	-264447.601	-1.039E-04	1.101E-03				
2702.600	-98.425	4.099	-265430.695	-8.628E-05	1.037E-03				
2712.600	-98.274	4.099	-266413.483	-9.479E-05	1.015E-03				
2722.600	-98.121	4.099	-267395.782	-8.324E-05	1.094E-03				
2732.600	-98.342	4.099	-268378.479	-9.539E-05	1.008E-03				
2742.600	-98.323	4.099	-269361.115	-8.810E-05	1.125E-03				
2752.600	-98.211	4.099	-270343.445	-9.114E-05	1.116E-03				
2762.600	-98.148	4.099	-271325.897	-9.357E-05	1.133E-03				
2772.600	-98.379	4.099	-272308.105	-9.175E-05	1.126E-03				
2782.600	-98.136	4.098	-273289.703	-9.175E-05	1.045E-03				
2792.600	-98.301	4.098	-274272.156	-9.175E-05	1.075E-03				
2802.600	-98.291	4.098	-275254.303	-8.506E-05	1.082E-03				
2812.600	-98.221	4.098	-276236.664	-9.053E-05	1.115E-03				
2822.600	-98.257	4.098	-277218.903	-7.352E-05	1.114E-03				
2832.600	-98.262	4.098	-278201.630	-9.539E-05	1.053E-03				
2842.600	-98.223	4.098	-279184.174	-9.296E-05	1.044E-03				
2852.600	-98.357	4.098	-280166.962	-8.992E-05	1.044E-03				
2862.600	-98.245	4.098	-281150.208	-8.081E-05	1.031E-03				
2872.600	-98.269	4.097	-282133.148	-1.094E-04	1.028E-03				
2882.600	-98.289	4.097	-283114.868	-1.015E-04	1.066E-03				
2892.600	-98.316	4.097	-284097.412	-9.114E-05	1.004E-03				
2902.600	-98.206	4.097	-285079.468	-9.904E-05	1.049E-03				
2912.600	-98.184	4.097	-286061.493	-9.782E-05	1.106E-03				
2922.600	-98.430	4.097	-287044.159	-8.992E-05	1.100E-03				
2932.600	-98.333	4.097	-288027.252	-1.136E-04	1.085E-03				
2942.600	-98.391	4.097	-289010.223	-8.142E-05	1.077E-03				
2952.600	-98.170	4.097	-289992.462	-8.506E-05	1.054E-03				
2962.600	-98.162	4.097	-290975.037	-9.053E-05	1.128E-03				
2972.600	-98.177	4.096	-291957.825	-9.296E-05	9.801E-04				
2982.600	-98.165	4.096	-292940.491	-9.600E-05	1.090E-03				
2992.600	-98.323	4.096	-293923.126	-9.418E-05	1.069E-03				
3002.600	-98.352	4.096	-294905.853	-9.479E-05	1.054E-03				
3012.600	-98.354	4.096	-295889.343	-9.782E-05	1.073E-03				
3022.600	-98.342	4.096	-296872.345	-8.567E-05	1.141E-03				
3032.600	-98.119	4.096	-297855.682	-9.539E-05	1.066E-03				
3042.600	-98.350	4.096	-298838.715	-8.689E-05	1.144E-03				
3052.600	-98.345	4.096	-299821.930	-7.716E-05	1.120E-03				
3062.600	-98.291	4.095	-300804.657	-9.782E-05	1.060E-03				
3072.600	-98.284	4.095	-301787.506	-8.385E-05	1.058E-03				
3082.600	-98.274	4.095	-302770.020	-9.175E-05	1.143E-03				
3092.600	-98.340	4.095	-303752.869	-8.385E-05	1.139E-03				
3102.600	-98.211	4.095	-304735.291	-8.324E-05	1.070E-03				
3112.600	-98.301	4.095	-305718.292	-8.324E-05	1.033E-03				
3122.600	-98.262	4.095	-306701.569	-8.628E-05	1.119E-03				
3132.600	-98.471	4.095	-307684.296	-9.782E-05	1.112E-03				
3142.600	-98.330	4.095	-308667.480	-9.600E-05	9.570E-04				
3152.600	-98.265	4.095	-309650.055	-8.020E-05	1.098E-03				
3162.600	-98.320	4.094	-310632.874	-7.352E-05	1.082E-03				
3172.600	-98.354	4.094	-311616.241	-8.385E-05	1.128E-03				
3182.600	-98.374	4.094	-312599.396	-9.053E-05	1.001E-03				
3192.600	-98.206	4.094	-313581.940	-1.173E-04	1.086E-03				
3202.600	-98.403	4.094	-314565.186	-1.015E-04	9.837E-04				
3212.600	-98.038	4.094	-315547.729	-8.567E-05	1.134E-03				
3222.600	-98.243	4.094	-316529.785	-7.656E-05	1.075E-03				
3232.600	-98.235	4.094	-317511.505	-7.960E-05	1.068E-03				
3242.600	-98.175	4.094	-318493.408	-9.053E-05	1.156E-03				
3252.600	-98.199	4.094	-319474.854	-9.722E-05	1.026E-03				
3262.600	-98.194	4.093	-320456.818	-9.357E-05	1.190E-03				
3272.600	-98.085	4.093	-321439.423	-8.567E-05	1.044E-03				
3282.600	-98.240	4.093	-322421.997	-8.749E-05	1.074E-03				
3292.600	-98.294	4.093	-323404.877	-9.053E-05	1.020E-03				
3302.600	-98.328	4.093	-324387.421	-1.154E-04	1.054E-03				
3312.600	-98.267	4.093	-325369.446	-8.020E-05	9.679E-04				
3322.600	-98.187	4.093	-326351.471	-1.015E-04	1.106E-03				
3332.600	-98.196	4.093	-327333.557	-9.114E-05	1.025E-03				
3342.600	-98.386	4.093	-328315.643	-7.960E-05	1.083E-03				
3352.600	-98.296	4.092	-329298.218	-9.175E-05	1.110E-03				
3362.600	-98.306	4.092	-330281.097	-7.838E-05	9.819E-04				
3372.600	-98.072	4.092	-331262.970	-9.965E-05	1.161E-03				
3382.600	-98.296	4.092	-332245.789	-9.114E-05	1.091E-03				
3392.600	-98.172	4.092	-333227.814	-9.235E-05	1.130E-03				
3402.600	-98.318	4.092	-334210.388	-8.871E-05	1.003E-03				
3412.600	-98.099	4.092	-335193.054	-7.291E-05	1.029E-03				
3422.600	-98.216	4.092	-336175.690	-8.810E-05	9.940E-04				
3432.600	-98.359	4.092	-337158.783	-8.142E-05	1.040E-03				
3442.600	-98.233	4.092	-338141.663	-8.871E-05	1.074E-03				
3452.600	-98.313	4.092	-339124.115	-7.838E-05	1.027E-03				
3462.600	-98.269	4.092	-340106.201	-9.539E-05	1.146E-03				
3472.600	-98.279	4.091	-341088.745	-9.782E-05	9.497E-04				
3482.600	-98.138	4.091	-342070.953	-1.088E-04	1.080E-03				
3492.600	-98.284	4.091	-343053.009	-9.296E-05	9.764E-04				
3502.600	-98.265	4.091	-344035.706	-1.045E-04	1.079E-03				
3512.600	-98.291	4.091	-345018.433	-9.539E-05	1.023E-03				
3522.600	-98.218	4.091	-346001.221	-9.843E-05	1.063E-03				
3532.600	-98.211	4.091	-346983.337	-8.749E-05	1.102E-03				
3542.600	-98.286	4.091	-347965.454	-9.722E-05	1.063E-03				
3552.600	-98.204	4.091	-348947.418	-9.843E-05	1.079E-03				
3562.600	-98.199	4.091	-349929.291	-9.296E-05	1.001E-03				
3572.600	-98.124	4.091	-350910.950	-9.539E-05	1.086E-03				
3582.600	-98.274	4.090	-351893.036	-8.932E-05	9.807E-04				
3592.600	-98.175	4.090	-352874.786	-1.057E-04	1.021E-03				
3602.600	-98.354	4.090	-353856.689	-9.600E-05	1.054E-03				
3612.600	-98.406	4.090	-354838.715	-1.021E-04	1.069E-03				
3622.600	-98.347	4.090	-355821.259	-8.871E-05	1.055E-03				
3632.600	-98.170	4.090	-356803.772	-9.296E-05	1.082E-03				
3642.600	-98.090	4.090	-357785.431	-7.656E-05	9.472E-04				
3652.600	-98.265	4.090	-358767.212	-8.749E-05	1.138E-03				
3662.600	-98.055	4.090	-359748.657	-8.506E-05	9.545E-04				
3672.600	-98.116	4.090	-360730.042	-8.506E-05	1.046E-03				
3682.600	-98.136	4.090	-361711.975	-9.782E-05	9.934E-04				
3692.600	-98.189	4.089	-362693.268	-9.600E-05	9.211E-04				
3702.600	-98.267	4.089	-363674.622	-8.203E-05	1.068E-03				
3712.600	-98.367	4.089	-364656.464	-9.296E-05	1.007E-03				
3722.600	-98.153	4.089	-365639.069	-1.112E-04	1.147E-03				
3732.600	-98.187	4.089	-366620.911	-7.656E-05	1.007E-03				
3742.600	-98.294	4.089	-367602.753	-6.805E-05	1.176E-03				
3752.600	-98.291	4.089	-368585.327	-9.843E-05	9.867E-04				
3762.600	-98.216	4.089	-369567.535	-8.871E-05	1.003E-03				
3772.600	-98.121	4.089	-370549.072	-9.357E-05	1.020E-03				
3782.600	-98.179	4.089	-371531.006	-8.810E-05	1.003E-03				
3792.600	-98.233	4.089	-372513.336	-8.992E-05	1.106E-03				
3802.600	-97.980	4.089	-373495.453	-8.749E-05	1.086E-03				
3812.600	-98.138	4.088	-374476.624	-8.203E-05	1.073E-03				
3822.600	-98.187	4.088	-375457.916	-8.689E-05	1.047E-03				
3832.600	-98.218	4.088	-376439.697	-9.175E-05	1.105E-03				
3842.600	-98.072	4.088	-377421.661	-8.749E-05	1.126E-03				
3852.600	-98.313	4.088	-378403.595	-9.053E-05	1.087E-03				
3862.600	-98.209	4.088	-379385.956	-7.048E-05	1.054E-03				
3872.600	-98.316	4.088	-380368.347	-8.506E-05	1.122E-03				
3882.600	-98.177	4.088	-381350.494	-8.081E-05	1.043E-03				
3892.600	-98.284	4.088	-382332.916	-9.600E-05	1.131E-03				
3902.600	-98.102	4.088	-383314.941	-8.020E-05	9.685E-04				
3912.600	-98.291	4.088	-384297.760	-9.782E-05	1.092E-03				
3922.600	-98.153	4.088	-385280.701	-9.235E-05	1.119E-03				
3932.600	-98.199	4.087	-386262.817	-7.899E-05	1.037E-03				
3942.600	-98.320	4.087	-387245.178	-1.069E-04	1.057E-03				
3952.600	-98.189	4.087	-388227.509	-1.033E-04	1.122E-03				
3962.600	-98.196	4.087	-389210.052	-9.296E-05	1.071E-03				
3972.600	-98.189	4.087	-390192.596	-8.810E-05	1.020E-03				
3982.600	-98.435	4.087	-391175.568	-8.263E-05	1.128E-03				
3992.600	-98.296	4.087	-392158.203	-9.904E-05	9.770E-04				
4002.600	-98.398	4.087	-393140.930	-7.656E-05	1.106E-03				
4012.600	-98.306	4.087	-394123.993	-1.063E-04	1.074E-03				
4022.600	-98.255	4.087	-395106.964	-1.003E-04	1.061E-03				
4032.600	-98.313	4.087	-396089.661	-8.871E-05	1.140E-03				
4042.600	-98.313	4.087	-397072.632	-9.722E-05	1.052E-03				
4052.600	-98.282	4.087	-398055.267	-7.534E-05	1.146E-03				
4062.600	-98.357	4.087	-399038.208	-8.142E-05	1.104E-03				
4072.600	-98.272	4.086	-400021.149	-9.539E-05	1.156E-03				
4082.600	-98.182	4.086	-401004.089	-7.109E-05	1.091E-03				
4092.600	-98.131	4.086	-401986.511	-8.749E-05	1.065E-03				
4102.600	-98.318	4.086	-402969.360	-9.357E-05	1.086E-03				
4112.600	-98.425	4.086	-403953.064	-9.539E-05	1.159E-03				
4122.600	-98.320	4.086	-404936.584	-9.843E-05	1.019E-03				
4132.600	-98.311	4.086	-405920.013	-1.033E-04	1.084E-03				
4142.600	-98.245	4.086	-406902.893	-8.020E-05	1.036E-03				
4152.600	-98.308	4.086	-407885.712	-8.628E-05	9.393E-04				
4162.600	-98.194	4.086	-408868.225	-7.716E-05	1.122E-03				
4172.600	-98.396	4.086	-409850.922	-7.838E-05	1.047E-03				
4182.600	-98.216	4.086	-410833.740	-8.749E-05	1.120E-03				
4192.600	-98.196	4.085	-411816.254	-8.932E-05	1.018E-03				
4202.600	-98.379	4.085	-412798.676	-9.296E-05	1.123E-03				
4212.600	-98.393	4.085	-413782.043	-9.418E-05	9.630E-04				
4222.600	-98.223	4.085	-414764.954	-8.506E-05	9.977E-04				
4232.600	-98.289	4.085	-415747.742	-9.904E-05	1.070E-03				
4242.600	-98.350	4.085	-416731.323	-9.843E-05	1.097E-03				
4252.600	-98.213	4.085	-417714.203	-9.053E-05	1.106E-03				
4262.600	-98.231	4.085	-418696.991	-8.992E-05	1.098E-03				
4272.600	-98.192	4.085	-419680.115	-8.446E-05	1.097E-03				
4282.600	-98.457	4.085	-420662.842	-8.020E-05	8.567E-04				
4292.600	-98.245	4.085	-421645.721	-9.357E-05	1.088E-03				
4302.600	-98.303	4.085	-422628.723	-8.203E-05	1.025E-03				
4312.600	-98.345	4.085	-423611.755	-8.081E-05	1.123E-03				
4322.600	-98.274	4.085	-424595.520	-8.567E-05	9.430E-04				
4332.600	-98.330	4.085	-425579.132	-7.716E-05	1.080E-03				
4342.600	-98.340	4.084	-426562.653	-9.722E-05	1.030E-03				
4352.600	-98.384	4.084	-427545.776	-8.263E-05	1.095E-03				
4362.600	-98.177	4.084	-428528.900	-8.081E-05	1.088E-03				
4372.600	-98.153	4.084	-429512.390	-9.175E-05	1.080E-03				
4382.600	-98.352	4.084	-430495.972	-8.992E-05	1.046E-03				
4392.600	-98.423	4.084	-431479.370	-9.904E-05	1.068E-03				
4402.600	-98.235	4.084	-432462.952	-9.235E-05	1.085E-03				
4412.600	-98.267	4.084	-433446.167	-1.039E-04	1.041E-03				
4422.600	-98.291	4.084	-434429.718	-8.810E-05	1.088E-03				
4432.600	-98.286	4.084	-435413.208	-1.063E-04	1.157E-03				
4442.600	-98.318	4.084	-436396.667	-9.235E-05	1.028E-03				
4452.600	-98.284	4.084	-437380.615	-9.479E-05	1.160E-03				
4462.600	-98.488	4.084	-438364.990	-9.296E-05	9.327E-04				
4472.600	-98.391	4.084	-439348.877	-9.843E-05	1.147E-03				
4482.600	-98.396	4.083	-440332.855	-9.175E-05	1.015E-03				
4492.600	-98.464	4.083	-441316.162	-7.899E-05	1.098E-03				
4502.600	-98.274	4.083	-442300.201	-8.203E-05	1.113E-03				
4512.600	-98.150	4.083	-443283.112	-8.506E-05	9.715E-04				
4522.600	-98.469	4.083	-444266.174	-9.357E-05	1.153E-03				
4532.600	-98.381	4.083	-445249.634	-8.142E-05	1.072E-03				
4542.600	-98.401	4.083	-446233.368	-1.075E-04	1.102E-03				
4552.600	-98.495	4.083	-447217.957	-9.418E-05	1.005E-03				
4562.600	-98.296	4.083	-448202.271	-1.106E-04	1.124E-03				
4572.600	-98.386	4.083	-449186.066	-9.053E-05	9.278E-04				
4582.600	-98.532	4.083	-450169.983	-9.235E-05	1.128E-03				
4592.600	-98.476	4.083	-451154.358	-9.296E-05	1.093E-03				
4602.600	-98.449	4.083	-452138.947	-8.810E-05	1.175E-03				
4612.600	-98.393	4.083	-453123.230	-8.567E-05	1.067E-03				
4622.600	-98.330	4.082	-454107.544	-1.009E-04	1.057E-03				
4632.600	-98.354	4.082	-455091.522	-9.114E-05	1.040E-03				
4642.600	-98.493	4.082	-456075.226	-8.446E-05	1.139E-03				
4652.600	-98.413	4.082	-457058.899	-9.296E-05	1.134E-03				
4662.600	-98.357	4.082	-458042.297	-1.027E-04	1.082E-03				
4672.600	-98.345	4.082	-459026.672	-8.263E-05	1.129E-03				
4682.600	-98.364	4.082	-460010.712	-9.053E-05	1.058E-03				
4692.600	-98.469	4.082	-460994.781	-8.385E-05	1.085E-03				
4702.600	-98.248	4.082	-461978.088	-9.539E-05	1.073E-03				
4712.600	-98.459	4.082	-462961.945	-6.987E-05	1.063E-03				
4722.600	-98.415	4.082	-463945.587	-9.479E-05	1.083E-03				
4732.600	-98.478	4.082	-464929.535	-9.722E-05	1.109E-03				
4742.600	-98.323	4.082	-465913.116	-8.081E-05	1.199E-03				
4752.600	-98.362	4.082	-466897.095	-7.413E-05	1.124E-03				
4762.600	-98.323	4.082	-467880.951	-8.567E-05	1.134E-03				
4772.600	-98.318	4.082	-468864.777	-9.600E-05	1.120E-03				
4782.600	-98.337	4.082	-469848.785	-9.600E-05	1.132E-03				
4792.600	-98.325	4.081	-470832.825	-8.446E-05	1.137E-03				
4802.600	-98.364	4.081	-471816.681	-1.069E-04	1.104E-03				
4812.600	-98.444	4.081	-472800.476	-1.106E-04	9.582E-04				
4822.600	-98.389	4.081	-473783.936	-7.352E-05	1.156E-03				
4832.600	-98.318	4.081	-474767.365	-8.506E-05	1.048E-03				
4842.600	-98.337	4.081	-475750.793	-9.235E-05	1.082E-03				
4852.600	-98.508	4.081	-476733.948	-1.009E-04	1.111E-03				
4862.600	-98.318	4.081	-477716.797	-1.082E-04	1.048E-03				
4866.000	-98.204	4.081	-478050.751	-9.600E-05	1.090E-03				
4866.200	-111.278	4.080	-478072.998	-8.749E-05	1.037E-03				
4866.600	-111.112	4.080	-478117.462	-9.175E-05	1.140E-03				
4867.400	-110.828	4.080	-478206.268	-8.446E-05	1.049E-03				
4869.000	-110.684	4.080	-478383.484	-6.805E-05	1.075E-03				
4872.200	-110.064	4.080	-478736.450	-8.385E-05	1.157E-03				
4878.600	-109.301	4.080	-479438.965	-9.114E-05	1.080E-03				
4888.600	-108.375	4.080	-480527.618	-9.965E-05	1.068E-03				
4898.600	-107.369	4.080	-481606.232	-9.357E-05	1.072E-03				
4908.600	-106.523	4.080	-482676.575	-9.661E-05	1.044E-03				
4918.600	-106.005	4.080	-483738.983	-8.506E-05	1.170E-03				
4928.600	-105.023	4.080	-484794.312	-8.081E-05	1.009E-03				
4938.600	-104.660	4.080	-485843.689	-8.203E-05	1.133E-03				
4948.600	-104.111	4.080	-486887.695	-9.053E-05	1.071E-03				
4958.600	-103.384	4.080	-487924.316	-8.992E-05	1.080E-03				
4968.600	-102.779	4.080	-488955.017	-8.506E-05	9.576E-04				
4978.600	-102.293	4.080	-489979.614	-8.689E-05	1.191E-03				
4988.600	-101.872	4.080	-490998.291	-8.689E-05	1.089E-03				
4998.600	-100.968	4.080	-492011.261	-7.899E-05	1.079E-03				
5008.600	-100.401	4.080	-493018.921	-8.081E-05	9.910E-04				
5018.600	-99.947	4.080	-494021.454	-8.932E-05	1.043E-03				
5028.600	-99.393	4.080	-495018.616	-9.296E-05	1.156E-03				
5038.600	-98.965	4.080	-496010.437	-8.689E-05	1.008E-03				
5048.600	-98.345	4.080	-496996.552	-8.871E-05	1.137E-03				
5058.600	-97.922	4.080	-497977.631	-1.088E-04	1.085E-03				
5068.600	-97.297	4.080	-498953.064	-8.992E-05	1.157E-03				
5078.600	-96.855	4.080	-499922.668	-8.871E-05	9.691E-04				
5088.600	-96.220	4.080	-500886.566	-7.595E-05	1.074E-03				
5098.600	-95.700	4.080	-501845.276	-9.782E-05	1.060E-03				
5108.600	-94.859	4.080	-502799.225	-8.506E-05	1.163E-03				
5118.600	-94.703	4.080	-503747.864	-8.992E-05	9.782E-04				
5128.600	-94.195	4.080	-504692.352	-8.506E-05	1.178E-03				
5138.600	-93.731	4.080	-505631.073	-8.567E-05	1.140E-03				
5148.600	-93.082	4.080	-506565.674	-9.965E-05	1.113E-03				
5158.600	-92.880	4.080	-507495.880	-9.782E-05	1.077E-03				
5168.600	-92.520	4.080	-508421.204	-9.661E-05	1.044E-03				
5178.600	-91.723	4.080	-509342.407	-7.716E-05	1.122E-03				
5188.600	-91.438	4.080	-510259.369	-9.904E-05	1.036E-03				
5198.600	-90.738	4.080	-511171.722	-9.114E-05	1.103E-03				
5208.600	-90.403	4.080	-512079.407	-9.904E-05	1.047E-03				
5218.600	-89.938	4.080	-512981.262	-9.539E-05	1.035E-03				
5228.600	-89.545	4.080	-513878.418	-1.075E-04	1.074E-03				
5238.600	-89.063	4.080	-514771.423	-9.053E-05	1.126E-03				
5248.600	-88.713	4.080	-515660.156	-8.203E-05	1.068E-03				
5258.600	-88.407	4.080	-516545.227	-8.324E-05	1.024E-03				
5268.600	-87.508	4.080	-517426.025	-8.871E-05	1.091E-03				
5278.600	-87.403	4.080	-518302.002	-1.082E-04	1.043E-03				
5288.600	-87.218	4.080	-519174.744	-8.324E-05	1.080E-03				
5298.600	-86.601	4.080	-520042.664	-9.357E-05	9.521E-04				
5308.600	-86.088	4.080	-520906.616	-8.506E-05	1.156E-03				
5318.600	-85.791	4.080	-521766.174	-9.418E-05	1.037E-03				
5328.600	-85.023	4.080	-522620.972	-7.595E-05	1.070E-03				
5338.600	-84.739	4.080	-523471.130	-8.506E-05	1.187E-03				
5348.600	-84.430	4.080	-524318.359	-9.600E-05	1.021E-03				
5358.600	-84.058	4.080	-525161.743	-8.810E-05	1.130E-03				
5368.600	-83.720	4.080	-526001.282	-7.170E-05	9.564E-04				
5378.600	-83.190	4.080	-526836.121	-8.871E-05	1.104E-03				
5388.600	-83.093	4.080	-527666.565	-8.689E-05	1.043E-03				
5398.600	-82.602	4.080	-528493.713	-8.810E-05	1.118E-03				
5408.600	-82.240	4.080	-529317.749	-7.291E-05	1.077E-03				
5418.600	-82.162	4.080	-530138.489	-7.291E-05	1.076E-03				
5428.600	-81.574	4.080	-530955.750	-1.106E-04	1.035E-03				
5438.600	-81.148	4.080	-531770.325	-7.716E-05	1.060E-03				
5448.600	-80.864	4.080	-532580.994	-8.446E-05	1.122E-03				
5458.600	-80.382	4.080	-533388.306	-8.992E-05	1.131E-03				
5468.600	-80.302	4.080	-534191.711	-9.418E-05	1.020E-03				
5478.600	-79.663	4.080	-534991.516	-1.015E-04	1.099E-03				
5488.600	-79.597	4.080	-535788.208	-8.992E-05	1.166E-03				
5498.600	-79.208	4.080	-536582.092	-8.871E-05	1.029E-03				
5508.600	-78.705	4.080	-537371.582	-9.053E-05	1.114E-03				
5518.600	-78.202	4.080	-538156.616	-7.838E-05	1.069E-03				
5528.600	-78.226	4.080	-538939.148	-9.904E-05	1.065E-03				
5538.600	-77.827	4.080	-539719.360	-9.296E-05	1.043E-03				
5548.600	-77.349	4.080	-540495.300	-9.479E-05	1.099E-03				
5558.600	-76.894	4.080	-541266.907	-7.352E-05	1.104E-03				
5568.600	-76.743	4.080	-542035.217	-8.992E-05	9.430E-04				
5578.600	-76.408	4.080	-542800.598	-7.413E-05	1.105E-03				
5588.600	-76.043	4.080	-543563.232	-9.296E-05	1.050E-03				
5598.600	-75.681	4.080	-544322.510	-8.324E-05	9.995E-04				
5608.600	-75.294	4.080	-545077.942	-7.473E-05	1.113E-03				
5618.600	-74.988	4.080	-545829.712	-8.567E-05	1.072E-03				
5628.600	-74.849	4.080	-546579.651	-9.722E-05	9.673E-04				
5638.600	-74.458	4.080	-547325.745	-8.567E-05	1.007E-03				
5648.600	-74.025	4.080	-548069.153	-8.628E-05	1.103E-03				
5658.600	-74.162	4.080	-548809.204	-8.385E-05	1.070E-03				
5668.600	-73.544	4.080	-549547.302	-9.661E-05	1.191E-03				
5678.600	-73.218	4.080	-550281.799	-8.810E-05	1.107E-03				
5688.600	-72.963	4.080	-551012.390	-8.628E-05	1.153E-03				
5698.600	-72.786	4.080	-551740.051	-8.385E-05	1.017E-03				
5708.600	-72.290	4.080	-552464.600	-9.479E-05	1.165E-03				
5718.600	-71.864	4.080	-553185.913	-9.114E-05	1.064E-03				
5728.600	-71.743	4.080	-553904.419	-9.053E-05	1.086E-03				
5738.600	-71.485	4.080	-554620.422	-9.904E-05	1.037E-03				
5748.600	-71.232	4.080	-555333.984	-9.053E-05	9.722E-04				
5758.600	-70.802	4.080	-556043.945	-9.296E-05	1.099E-03				
5768.600	-70.658	4.080	-556750.793	-8.628E-05	1.036E-03				
5778.600	-70.615	4.080	-557455.627	-9.661E-05	1.069E-03				
5788.600	-69.956	4.080	-558157.288	-1.063E-04	1.083E-03				
5798.600	-69.679	4.080	-558855.835	-9.904E-05	1.148E-03				
5808.600	-69.557	4.080	-559552.002	-9.904E-05	1.145E-03				
5818.600	-69.093	4.080	-560245.483	-9.661E-05	1.106E-03				
5828.600	-68.908	4.080	-560935.852	-8.992E-05	9.746E-04				
5838.600	-68.527	4.080	-561623.474	-8.749E-05	1.123E-03				
5848.600	-68.288	4.080	-562307.739	-8.020E-05	9.612E-04				
5858.600	-67.955	4.080	-562989.563	-9.235E-05	1.007E-03				
5868.600	-67.822	4.080	-563668.640	-8.749E-05	1.006E-03				
5878.600	-67.501	4.080	-564346.069	-6.076E-05	1.102E-03				
5888.600	-67.299	4.080	-565021.484	-7.899E-05	1.120E-03				
5898.600	-67.048	4.080	-565692.993	-9.843E-05	1.116E-03				
5908.600	-66.640	4.080	-566361.633	-9.539E-05	1.134E-03				
5918.600	-66.368	4.080	-567027.649	-8.992E-05	1.069E-03				
5928.600	-66.222	4.080	-567691.101	-1.003E-04	1.154E-03				
5938.600	-65.899	4.080	-568351.379	-9.661E-05	1.007E-03				
5948.600	-65.461	4.080	-569009.216	-8.567E-05	1.068E-03				
5958.600	-65.437	4.080	-569664.307	-8.689E-05	1.100E-03				
5968.600	-65.288	4.080	-570318.604	-8.385E-05	1.125E-03				
5978.600	-64.865	4.080	-570969.910	-6.987E-05	1.043E-03				
5988.600	-65.028	4.080	-571619.324	-8.992E-05	1.024E-03				
5998.600	-64.705	4.080	-572266.418	-9.357E-05	1.051E-03				
6008.600	-64.382	4.080	-572911.377	-8.932E-05	1.056E-03				
6018.600	-64.197	4.080	-573553.101	-7.777E-05	1.176E-03				
6028.600	-64.010	4.080	-574192.871	-7.473E-05	1.086E-03				
6038.600	-63.572	4.080	-574829.529	-9.843E-05	1.026E-03				
6048.600	-63.417	4.080	-575463.318	-8.142E-05	1.111E-03				
6058.600	-62.989	4.080	-576095.398	-9.600E-05	1.111E-03				
6068.600	-62.921	4.080	-576724.426	-8.689E-05	1.007E-03				
6078.600	-62.709	4.080	-577351.685	-9.661E-05	9.831E-04				
6088.600	-62.262	4.080	-577976.929	-6.684E-05	9.995E-04				
6098.600	-62.094	4.080	-578599.243	-8.810E-05	9.077E-04				
6108.600	-62.252	4.080	-579219.482	-9.296E-05	1.163E-03				
6118.600	-61.618	4.080	-579837.097	-8.567E-05	1.013E-03				
6128.600	-61.506	4.080	-580452.759	-8.871E-05	1.133E-03				
6138.600	-61.333	4.080	-581066.345	-8.324E-05	1.052E-03				
6148.600	-61.268	4.080	-581678.345	-7.777E-05	1.133E-03				
6158.600	-60.942	4.080	-582288.086	-7.291E-05	1.081E-03				
6168.600	-60.444	4.080	-582895.142	-8.081E-05	1.095E-03				
6178.600	-60.322	4.080	-583500.061	-9.782E-05	1.060E-03				
6188.600	-60.067	4.080	-584103.333	-8.628E-05	1.117E-03				
6198.600	-60.069	4.080	-584704.407	-1.015E-04	1.015E-03				
6208.600	-59.595	4.080	-585303.711	-8.385E-05	1.099E-03				
6218.600	-59.466	4.080	-585901.062	-9.053E-05	1.000E-03				
6228.600	-59.250	4.080	-586495.789	-1.003E-04	1.017E-03				
6238.600	-59.192	4.080	-587088.013	-8.567E-05	1.031E-03				
6248.600	-58.922	4.080	-587677.612	-1.039E-04	1.107E-03				
6258.600	-58.615	4.080	-588265.747	-6.623E-05	1.128E-03				
6268.600	-58.540	4.080	-588851.685	-7.352E-05	1.016E-03				
6278.600	-58.421	4.080	-589435.303	-8.324E-05	1.089E-03				
6288.600	-57.884	4.080	-590017.334	-6.927E-05	1.026E-03				
6298.600	-57.906	4.080	-590597.168	-1.027E-04	1.129E-03				
6308.600	-57.665	4.080	-591174.255	-9.418E-05	1.143E-03				
6318.600	-57.154	4.080	-591749.207	-9.965E-05	9.898E-04				
6328.600	-57.154	4.080	-592322.510	-9.965E-05	1.102E-03				
6338.600	-56.950	4.080	-592893.250	-8.628E-05	1.061E-03				
6348.600	-56.741	4.080	-593462.524	-8.506E-05	1.013E-03				
6358.600	-56.518	4.080	-594029.419	-9.357E-05	1.082E-03				
6368.600	-56.296	4.080	-594594.666	-1.045E-04	1.039E-03				
6378.600	-55.990	4.080	-595157.715	-6.684E-05	1.093E-03				
6388.600	-56.206	4.080	-595718.445	-9.418E-05	1.063E-03				
6398.600	-55.796	4.080	-596276.978	-8.506E-05	1.080E-03				
6408.600	-55.499	4.080	-596833.618	-8.871E-05	1.063E-03				
6418.600	-55.659	4.080	-597388.794	-1.003E-04	1.014E-03				
6428.600	-55.460	4.080	-597943.176	-8.324E-05	1.105E-03				
6438.600	-55.178	4.080	-598495.300	-8.749E-05	1.069E-03				
6448.600	-55.003	4.080	-599045.166	-8.689E-05	1.044E-03				
6458.600	-54.626	4.080	-599592.896	-8.567E-05	1.054E-03				
6468.600	-54.592	4.080	-600139.282	-8.385E-05	9.807E-04				
6478.600	-54.510	4.080	-600684.509	-1.033E-04	1.082E-03				
6488.600	-54.240	4.080	-601228.210	-8.385E-05	1.063E-03				
6498.600	-54.014	4.080	-601768.799	-7.838E-05	1.057E-03				
6508.600	-53.822	4.080	-602307.617	-8.810E-05	1.108E-03				
6518.600	-53.506	4.080	-602845.154	-9.053E-05	1.153E-03				
6528.600	-53.326	4.080	-603380.981	-8.689E-05	1.106E-03				
6538.600	-53.328	4.080	-603913.757	-9.053E-05	1.091E-03				
6548.600	-53.163	4.080	-604444.763	-9.479E-05	1.064E-03				
6558.600	-52.769	4.080	-604973.694	-8.749E-05	1.045E-03				
6568.600	-52.635	4.080	-605500.305	-8.932E-05	1.154E-03				
6578.600	-52.414	4.080	-606025.818	-8.385E-05	9.928E-04				
6588.600	-52.436	4.080	-606550.232	-8.810E-05	1.250E-03				
6598.600	-52.103	4.080	-607074.036	-8.081E-05	1.063E-03				
6608.600	-52.130	4.080	-607595.459	-8.871E-05	1.164E-03				
6618.600	-51.906	4.080	-608114.624	-9.053E-05	1.032E-03				
6628.600	-51.870	4.080	-608632.385	-8.263E-05	1.184E-03				
6638.600	-51.517	4.080	-609148.804	-9.296E-05	1.023E-03				
6648.600	-51.245	4.080	-609663.269	-9.418E-05	9.849E-04				
6658.600	-51.094	4.080	-610176.086	-7.230E-05	1.060E-03				
6668.600	-50.955	4.080	-610686.279	-8.932E-05	1.111E-03				
6678.600	-51.004	4.080	-611195.740	-8.749E-05	1.046E-03				
6688.600	-50.720	4.080	-611703.308	-9.539E-05	1.151E-03				
6698.600	-50.486	4.080	-612209.351	-1.075E-04	1.115E-03				
6708.600	-50.353	4.080	-612713.379	-8.810E-05	1.115E-03				
6718.600	-50.146	4.080	-613215.698	-8.385E-05	1.151E-03				
6728.600	-50.253	4.080	-613716.248	-7.899E-05	1.075E-03				
6738.600	-49.733	4.080	-614215.637	-8.385E-05	1.080E-03				
6748.600	-49.733	4.080	-614713.196	-8.689E-05	9.813E-04				
6758.600	-49.424	4.080	-615208.679	-9.904E-05	1.078E-03				
6768.600	-49.368	4.080	-615703.003	-9.539E-05	1.008E-03				
6778.600	-49.118	4.080	-616196.838	-9.053E-05	1.180E-03				
6788.600	-49.076	4.080	-616688.904	-8.385E-05	1.086E-03				
6798.600	-49.191	4.080	-617179.993	-6.927E-05	1.100E-03				
6808.600	-48.950	4.080	-617668.762	-7.777E-05	1.055E-03				
6818.600	-48.624	4.080	-618155.334	-1.051E-04	8.950E-04				
6828.600	-48.308	4.080	-618640.686	-7.352E-05	1.140E-03				
6838.600	-48.221	4.080	-619123.474	-7.413E-05	1.124E-03				
6848.600	-48.201	4.080	-619606.262	-8.932E-05	1.128E-03				
6858.600	-47.978	4.080	-620086.365	-8.203E-05	1.165E-03				
6868.600	-47.727	4.080	-620565.430	-8.020E-05	1.046E-03				
6878.600	-47.696	4.080	-621043.274	-9.661E-05	1.121E-03				
6888.600	-47.569	4.080	-621520.081	-9.843E-05	1.063E-03				
6898.600	-47.304	4.080	-621994.507	-8.689E-05	9.807E-04				
6908.600	-47.389	4.080	-622467.529	-8.810E-05	1.120E-03				
6918.600	-47.134	4.080	-622938.904	-9.053E-05	1.114E-03				
6928.600	-47.051	4.080	-623409.607	-7.473E-05	1.110E-03				
6938.600	-47.037	4.080	-623879.517	-9.479E-05	1.041E-03				
6948.600	-46.910	4.080	-624347.900	-9.904E-05	1.049E-03				
6958.600	-46.636	4.080	-624814.758	-9.843E-05	1.035E-03				
6968.600	-46.145	4.080	-625280.396	-9.357E-05	1.083E-03				
6978.600	-46.096	4.080	-625742.981	-9.904E-05	1.116E-03				
6988.600	-46.008	4.080	-626204.346	-8.142E-05	1.136E-03				
6998.600	-45.641	4.080	-626664.001	-8.203E-05	1.060E-03				
7008.600	-45.671	4.080	-627121.094	-8.932E-05	1.121E-03				
7018.600	-45.401	4.080	-627577.209	-9.418E-05	1.109E-03				
7028.600	-45.391	4.080	-628033.020	-9.175E-05	9.904E-04				
7038.600	-45.379	4.080	-628487.427	-7.960E-05	1.108E-03				
7048.600	-45.328	4.080	-628939.819	-8.142E-05	1.044E-03				
7058.600	-45.080	4.080	-629390.564	-8.628E-05	9.624E-04				
7068.600	-44.786	4.080	-629839.966	-7.595E-05	1.105E-03				
7078.600	-44.725	4.080	-630288.330	-9.053E-05	1.106E-03				
7088.600	-44.713	4.080	-630736.267	-7.473E-05	1.093E-03				
7098.600	-44.567	4.080	-631182.556	-9.235E-05	1.146E-03				
7108.600	-44.557	4.080	-631627.747	-8.749E-05	1.165E-03				
7118.600	-44.234	4.080	-632071.655	-9.296E-05	1.019E-03				
7128.600	-44.239	4.080	-632513.733	-9.235E-05	1.199E-03				
7138.600	-44.156	4.080	-632954.895	-9.722E-05	1.041E-03				
7148.600	-44.000	4.080	-633394.348	-8.385E-05	1.155E-03				
7158.600	-43.845	4.080	-633832.397	-8.992E-05	1.001E-03				
7168.600	-43.578	4.080	-634269.226	-9.600E-05	1.109E-03				
7178.600	-43.254	4.080	-634704.346	-8.081E-05	1.129E-03				
7188.600	-43.271	4.080	-635137.817	-8.932E-05	1.060E-03				
7198.600	-43.084	4.080	-635569.275	-7.656E-05	1.034E-03				
7208.600	-42.975	4.080	-635999.329	-9.357E-05	1.037E-03				
7218.600	-42.848	4.080	-636427.734	-9.296E-05	1.122E-03				
7228.600	-42.625	4.080	-636855.225	-8.871E-05	1.062E-03				
7238.600	-42.462	4.080	-637280.762	-9.479E-05	1.100E-03				
7248.600	-42.824	4.080	-637705.566	-8.081E-05	1.099E-03				
7258.600	-42.338	4.080	-638129.700	-1.009E-04	1.065E-03				
7268.600	-42.250	4.080	-638552.246	-9.782E-05	1.111E-03				
7278.600	-41.937	4.080	-638973.511	-1.063E-04	1.085E-03				
7288.600	-42.002	4.080	-639394.287	-1.033E-04	1.105E-03				
7298.600	-41.910	4.080	-639812.866	-9.539E-05	1.042E-03				
7308.600	-41.805	4.080	-640230.286	-8.203E-05	1.001E-03				
7318.600	-41.747	4.080	-640646.179	-8.749E-05	9.904E-04				
7328.600	-41.657	4.080	-641061.951	-9.904E-05	1.015E-03				
7338.600	-41.436	4.080	-641476.257	-7.595E-05	1.004E-03				
7348.600	-41.261	4.080	-641890.076	-8.628E-05	1.137E-03				
7358.600	-41.095	4.080	-642302.124	-9.965E-05	9.867E-04				
7368.600	-40.911	4.080	-642711.609	-8.871E-05	1.057E-03				
7378.600	-40.889	4.080	-643120.544	-1.021E-04	1.065E-03				
7388.600	-40.852	4.080	-643528.198	-8.932E-05	1.073E-03				
7398.600	-40.697	4.080	-643935.852	-8.689E-05	1.100E-03				
7408.600	-40.655	4.080	-644342.163	-8.871E-05	1.149E-03				
7418.600	-40.429	4.080	-644746.704	-7.413E-05	1.094E-03				
7428.600	-40.395	4.080	-645149.719	-8.689E-05	9.643E-04				
7438.600	-40.342	4.080	-645552.429	-9.479E-05	1.126E-03				
7448.600	-40.179	4.080	-645955.322	-9.600E-05	1.132E-03				
7458.600	-39.977	4.080	-646356.262	-9.357E-05	1.186E-03				
7468.600	-40.065	4.080	-646756.348	-8.689E-05	1.084E-03				
7478.600	-40.077	4.080	-647155.212	-9.114E-05	1.111E-03				
7488.600	-39.722	4.080	-647554.016	-8.567E-05	1.085E-03				
7498.600	-39.613	4.080	-647950.928	-8.020E-05	1.058E-03				
7508.600	-39.669	4.080	-648347.656	-9.843E-05	1.086E-03				
7518.600	-39.520	4.080	-648743.835	-9.479E-05	9.916E-04				
7528.600	-39.311	4.080	-649138.672	-9.114E-05	1.046E-03				
7538.600	-39.258	4.080	-649532.349	-8.263E-05	1.041E-03				
7548.600	-39.058	4.080	-649924.744	-8.628E-05	1.122E-03				
7558.600	-39.335	4.080	-650317.383	-9.965E-05	1.049E-03				
7568.600	-39.046	4.080	-650709.290	-9.600E-05	1.006E-03				
7578.600	-38.903	4.080	-651099.365	-9.843E-05	1.099E-03				
7588.600	-38.932	4.080	-651487.671	-9.479E-05	1.174E-03				
7598.600	-38.720	4.080	-651874.939	-1.015E-04	1.045E-03				
7608.600	-38.621	4.080	-652261.536	-9.114E-05	1.096E-03				
7618.600	-38.331	4.080	-652647.400	-9.235E-05	1.068E-03				
7628.600	-38.278	4.080	-653031.372	-8.446E-05	1.123E-03				
7638.600	-38.339	4.080	-653413.757	-9.296E-05	1.120E-03				
7648.600	-37.906	4.080	-653795.044	-1.088E-04	1.083E-03				
7658.600	-37.938	4.080	-654175.354	-9.235E-05	1.097E-03				
7668.600	-37.855	4.080	-654554.626	-1.039E-04	1.045E-03				
7678.600	-37.750	4.080	-654932.312	-8.871E-05	1.097E-03				
7688.600	-37.661	4.080	-655309.509	-7.595E-05	1.087E-03				
7698.600	-37.529	4.080	-655684.814	-1.033E-04	1.114E-03				
7708.600	-37.653	4.080	-656059.570	-7.473E-05	1.064E-03				
7718.600	-37.374	4.080	-656433.350	-8.932E-05	1.074E-03				
7728.600	-37.131	4.080	-656805.969	-1.063E-04	1.006E-03				
7738.600	-37.048	4.080	-657178.101	-8.081E-05	1.044E-03				
7748.600	-37.106	4.080	-657549.011	-6.258E-05	1.128E-03				
7758.600	-36.836	4.080	-657917.542	-9.904E-05	1.055E-03				
7768.600	-36.812	4.080	-658285.034	-8.203E-05	1.137E-03				
7778.600	-36.613	4.080	-658651.794	-9.296E-05	1.090E-03				
7788.600	-36.375	4.080	-659017.151	-8.385E-05	1.140E-03				
7798.600	-36.433	4.080	-659381.287	-1.015E-04	1.114E-03				
7808.600	-36.022	4.080	-659744.385	-9.235E-05	1.145E-03				
7818.600	-35.971	4.080	-660106.506	-8.446E-05	1.074E-03				
7828.600	-36.076	4.080	-660467.407	-9.296E-05	1.062E-03				
7838.600	-36.209	4.080	-660828.979	-8.203E-05	1.047E-03				
7848.600	-35.913	4.080	-661189.392	-9.053E-05	1.065E-03				
7858.600	-35.949	4.080	-661548.950	-7.534E-05	9.801E-04				
7868.600	-35.643	4.080	-661908.508	-7.716E-05	1.138E-03				
7878.600	-35.949	4.080	-662267.578	-1.082E-04	1.151E-03				
7888.600	-35.643	4.080	-662625.488	-8.506E-05	1.156E-03				
7898.600	-35.502	4.080	-662982.056	-7.352E-05	1.099E-03				
7908.600	-35.546	4.080	-663337.585	-1.009E-04	1.059E-03				
7918.600	-35.436	4.080	-663693.176	-9.722E-05	1.191E-03				
7928.600	-35.264	4.080	-664046.875	-9.053E-05	1.094E-03				
7938.600	-35.424	4.080	-664399.414	-9.175E-05	1.084E-03				
7948.600	-35.003	4.080	-664751.343	-1.118E-04	1.057E-03				
7958.600	-35.239	4.080	-665102.112	-6.076E-05	1.105E-03				
7968.600	-35.047	4.080	-665451.843	-7.534E-05	1.074E-03				
7978.600	-34.858	4.080	-665800.537	-1.003E-04	1.064E-03				
7988.600	-34.853	4.080	-666149.048	-1.057E-04	1.062E-03				
7998.600	-34.714	4.080	-666497.314	-9.114E-05	1.102E-03				
8008.600	-34.622	4.080	-666844.360	-9.357E-05	1.057E-03				
8018.600	-34.500	4.080	-667190.491	-7.777E-05	1.052E-03				
8028.600	-34.573	4.080	-667535.400	-9.296E-05	1.085E-03				
8038.600	-34.264	4.080	-667878.723	-9.965E-05	1.042E-03				
8048.600	-34.272	4.080	-668221.069	-8.871E-05	1.067E-03				
8058.600	-34.131	4.080	-668563.477	-7.595E-05	1.044E-03				
8068.600	-34.036	4.080	-668905.273	-7.716E-05	1.018E-03				
8078.600	-33.868	4.080	-669245.667	-8.749E-05	1.113E-03				
8088.600	-33.919	4.080	-669585.205	-8.689E-05	1.138E-03				
8098.600	-34.080	4.080	-669924.561	-9.296E-05	9.819E-04				
8108.600	-33.700	4.080	-670263.489	-8.446E-05	1.128E-03				
8118.600	-33.883	4.080	-670601.501	-7.777E-05	1.095E-03				
8128.600	-33.718	4.080	-670938.660	-9.479E-05	1.034E-03				
8138.600	-33.696	4.080	-671275.146	-7.899E-05	1.077E-03				
8148.600	-33.749	4.080	-671611.694	-8.628E-05	9.606E-04				
8158.600	-33.436	4.080	-671946.899	-7.109E-05	1.112E-03				
8168.600	-33.346	4.080	-672280.457	-9.600E-05	9.734E-04				
8178.600	-33.090	4.080	-672614.380	-1.021E-04	1.094E-03				
8188.600	-33.175	4.080	-672946.899	-8.689E-05	1.110E-03				
8198.600	-32.996	4.080	-673278.076	-9.600E-05	1.051E-03				
8208.600	-32.837	4.080	-673608.032	-8.385E-05	1.091E-03				
8218.600	-33.076	4.080	-673937.195	-6.987E-05	1.074E-03				
8228.600	-32.590	4.080	-674265.442	-8.081E-05	1.178E-03				
8238.600	-32.665	4.080	-674592.346	-9.904E-05	1.055E-03				
8248.600	-32.475	4.080	-674917.969	-8.263E-05	1.029E-03				
8258.600	-32.427	4.080	-675243.286	-8.992E-05	1.017E-03				
8268.600	-32.380	4.080	-675567.932	-8.932E-05	1.117E-03				
8278.600	-32.395	4.080	-675891.418	-9.843E-05	1.039E-03				
8288.600	-32.366	4.080	-676215.454	-1.045E-04	1.017E-03				
8298.600	-32.162	4.080	-676538.391	-8.810E-05	1.077E-03				
8308.600	-32.116	4.080	-676859.619	-9.235E-05	1.159E-03				
8318.600	-32.120	4.080	-677180.298	-9.175E-05	1.097E-03				
8328.600	-31.816	4.080	-677500.122	-9.539E-05	1.088E-03				
8338.600	-31.816	4.080	-677819.275	-9.661E-05	1.004E-03				
8348.600	-31.707	4.080	-678137.451	-8.628E-05	1.043E-03				
8358.600	-31.530	4.080	-678454.834	-1.094E-04	1.018E-03				
8368.600	-31.651	4.080	-678771.729	-8.203E-05	1.123E-03				
8378.600	-31.394	4.080	-679087.524	-8.932E-05	1.038E-03				
8388.600	-31.486	4.080	-679402.039	-8.871E-05	1.053E-03				
8398.600	-31.408	4.080	-679716.064	-9.965E-05	1.155E-03				
8408.600	-31.201	4.080	-680029.114	-8.871E-05	1.080E-03				
8418.600	-31.287	4.080	-680341.858	-7.595E-05	1.154E-03				
8428.600	-31.335	4.080	-680653.809	-8.324E-05	1.128E-03				
8438.600	-30.963	4.080	-680964.783	-1.003E-04	1.075E-03				
8448.600	-31.175	4.080	-681274.780	-9.661E-05	1.109E-03				
8458.600	-30.927	4.080	-681584.045	-9.175E-05	1.046E-03				
8465.800	-30.961	4.080	-681805.969	-9.357E-05	1.159E-03				
8466.000	1.979	4.083	-681805.603	-9.053E-05	1.052E-03				
8466.400	1.784	4.083	-681804.871	-1.021E-04	1.060E-03				
8467.200	1.711	4.083	-681803.406	-9.235E-05	1.086E-03				
8468.800	1.711	4.083	-681800.476	-9.114E-05	1.090E-03				
8472.000	1.896	4.083	-681794.678	-1.033E-04	1.147E-03				
8478.400	1.775	4.083	-681783.020	-9.357E-05	9.527E-04				
8488.400	1.809	4.083	-681765.015	-9.904E-05	1.006E-03				
8498.400	1.707	4.083	-681746.948	-8.446E-05	1.032E-03				
8508.400	1.707	4.083	-681729.065	-8.263E-05	1.109E-03				
8518.400	1.843	4.083	-681710.876	-1.015E-04	1.138E-03				
8528.400	1.828	4.083	-681693.542	-9.661E-05	1.023E-03				
8538.400	1.930	4.083	-681675.537	-1.027E-04	1.083E-03				
8548.400	1.867	4.083	-681657.227	-7.656E-05	1.074E-03				
8558.400	1.711	4.083	-681639.526	-1.033E-04	1.049E-03				
8568.400	1.736	4.084	-681621.521	-1.045E-04	1.060E-03				
8578.400	1.716	4.084	-681603.577	-8.871E-05	1.095E-03				
8585.800	1.818	4.084	-681590.027	-7.960E-05	1.125E-03				
8586.000	251.532	4.106	-681539.734	-9.357E-05	1.071E-03				
8586.400	251.629	4.106	-681439.087	-7.777E-05	1.103E-03				
8587.200	251.731	4.106	-681237.793	-8.385E-05	1.060E-03				
8588.800	251.766	4.107	-680835.022	-8.203E-05	1.030E-03				
8592.000	251.795	4.107	-680029.541	-8.810E-05	1.107E-03				
8598.400	251.702	4.108	-678418.396	-8.628E-05	1.063E-03				
8608.400	251.712	4.109	-675901.855	-8.932E-05	1.160E-03				
8618.400	251.688	4.109	-673384.583	-8.810E-05	1.030E-03				
8628.400	251.625	4.110	-670867.432	-8.263E-05	1.116E-03				
8638.400	251.688	4.110	-668350.159	-9.418E-05	1.014E-03				
8648.400	251.790	4.111	-665832.642	-8.871E-05	1.032E-03				
8658.400	251.683	4.111	-663315.247	-9.235E-05	1.072E-03				
8668.400	251.848	4.111	-660797.546	-8.871E-05	1.105E-03				
8678.400	251.804	4.112	-658280.090	-9.904E-05	1.109E-03				
8688.400	251.800	4.112	-655762.390	-7.473E-05	1.131E-03				
8693.800	251.649	4.112	-654402.893	-8.749E-05	9.849E-04				
8694.000	1.930	4.090	-654402.527	-8.628E-05	1.043E-03				
8694.400	1.643	4.090	-654401.855	-9.600E-05	1.153E-03				
8695.200	1.828	4.089	-654400.391	-9.965E-05	1.083E-03				
8696.800	1.775	4.089	-654397.522	-9.904E-05	1.125E-03				
8700.000	1.638	4.088	-654391.907	-1.039E-04	1.098E-03				
8706.400	1.677	4.088	-654380.371	-8.992E-05	1.068E-03				
8716.400	1.814	4.087	-654362.549	-1.039E-04	1.057E-03				
8726.400	1.862	4.087	-654344.299	-7.899E-05	1.060E-03				
8736.400	1.682	4.087	-654326.599	-8.749E-05	1.030E-03				
8746.400	1.614	4.087	-654309.204	-1.045E-04	8.980E-04				
8756.400	1.648	4.087	-654291.565	-9.114E-05	1.184E-03				
8766.400	1.668	4.086	-654274.597	-1.033E-04	1.029E-03				
8776.400	1.682	4.086	-654257.813	-9.175E-05	1.027E-03				
8786.400	1.561	4.086	-654240.967	-9.600E-05	1.000E-03				
8796.400	1.770	4.086	-654224.121	-8.324E-05	1.125E-03				
8806.400	1.643	4.086	-654206.665	-9.418E-05	1.088E-03				
8813.800	1.711	4.086	-654193.420	-8.203E-05	1.077E-03				
8814.000	-248.299	4.064	-654243.103	-8.871E-05	1.061E-03				
8814.400	-248.294	4.064	-654342.468	-9.235E-05	1.082E-03				
8815.200	-248.209	4.063	-654541.138	-9.418E-05	9.649E-04				
8816.800	-248.221	4.063	-654938.232	-8.081E-05	1.198E-03				
8820.000	-248.301	4.062	-655733.093	-9.235E-05	9.989E-04				
8826.400	-248.372	4.062	-657322.693	-1.021E-04	1.099E-03				
8836.400	-248.318	4.061	-659805.786	-7.595E-05	9.740E-04				
8846.400	-248.284	4.060	-662288.757	-9.722E-05	1.170E-03				
8856.400	-248.318	4.060	-664772.095	-7.960E-05	1.120E-03				
8866.400	-248.248	4.059	-667255.493	-9.053E-05	1.065E-03				
8876.400	-248.348	4.059	-669738.342	-9.965E-05	1.047E-03				
8886.400	-248.282	4.059	-672221.924	-8.992E-05	1.185E-03				
8896.400	-248.433	4.058	-674705.200	-8.385E-05	1.027E-03				
8906.400	-248.284	4.058	-677189.148	-1.075E-04	1.147E-03				
8916.400	-248.350	4.058	-679673.096	-8.142E-05	1.103E-03				
8921.800	-248.348	4.058	-681014.465	-1.045E-04	1.085E-03				
8922.000	1.527	4.080	-681014.160	-1.009E-04	1.094E-03				
8922.400	1.716	4.080	-681013.489	-1.021E-04	1.076E-03				
8923.200	1.872	4.081	-681012.024	-9.539E-05	9.503E-04				
8924.800	1.848	4.081	-681009.155	-8.992E-05	1.145E-03				
8928.000	1.760	4.081	-681003.296	-9.479E-05	1.069E-03				
8934.400	2.095	4.082	-680991.516	-1.033E-04	1.139E-03				
8944.400	1.809	4.082	-680973.083	-8.932E-05	1.047E-03				
8954.400	1.852	4.083	-680954.041	-9.661E-05	1.144E-03				
8964.400	1.964	4.083	-680935.364	-8.992E-05	1.075E-03				
8974.400	1.770	4.083	-680916.870	-9.479E-05	1.139E-03				
8984.400	1.775	4.083	-680898.132	-7.656E-05	1.101E-03				
8994.400	2.086	4.083	-680879.333	-7.716E-05	1.081E-03				
9004.400	1.794	4.083	-680860.291	-9.782E-05	1.040E-03				
9014.400	1.920	4.083	-680841.980	-9.843E-05	1.032E-03				
9024.400	1.979	4.084	-680822.998	-1.021E-04	1.126E-03				
9034.400	1.911	4.084	-680804.260	-1.009E-04	1.125E-03				
9041.800	1.852	4.084	-680790.771	-9.357E-05	1.035E-03				
9042.000	501.183	4.129	-680690.552	-7.838E-05	1.090E-03				
9042.400	501.640	4.129	-680489.929	-7.413E-05	1.083E-03				
9043.200	501.747	4.130	-680088.623	-9.175E-05	1.143E-03				
9044.800	501.897	4.130	-679285.767	-8.689E-05	9.722E-04				
9048.000	501.640	4.131	-677680.237	-8.020E-05	1.120E-03				
9054.400	501.829	4.133	-674468.750	-1.027E-04	9.825E-04				
9064.400	501.922	4.134	-669450.256	-7.838E-05	1.133E-03				
9074.400	501.829	4.136	-664432.312	-1.057E-04	1.031E-03				
9084.400	501.776	4.137	-659414.368	-9.661E-05	1.074E-03				
9094.400	501.829	4.137	-654397.339	-8.567E-05	9.946E-04				
9095.800	501.752	4.137	-653694.946	-9.296E-05	1.049E-03				
9096.000	2.241	4.093	-653694.519	-1.033E-04	1.152E-03				
9096.400	1.867	4.092	-653693.726	-9.843E-05	1.133E-03				
9097.200	1.891	4.092	-653692.200	-7.534E-05	1.086E-03				
9098.800	1.872	4.091	-653689.270	-9.418E-05	1.003E-03				
9102.000	1.925	4.090	-653683.533	-9.661E-05	1.077E-03				
9108.400	1.935	4.089	-653671.692	-8.446E-05	1.037E-03				
9118.400	1.711	4.088	-653653.320	-9.539E-05	1.106E-03				
9128.400	1.886	4.088	-653634.888	-1.100E-04	1.058E-03				
9138.400	1.979	4.088	-653616.150	-8.871E-05	1.029E-03				
9148.400	1.906	4.087	-653596.985	-8.324E-05	1.113E-03				
9158.400	1.989	4.087	-653577.576	-9.357E-05	1.060E-03				
9168.400	1.935	4.087	-653558.533	-8.324E-05	1.109E-03				
9178.400	1.959	4.087	-653540.039	-9.053E-05	1.057E-03				
9188.400	1.901	4.087	-653521.545	-9.357E-05	1.066E-03				
9198.400	1.979	4.087	-653502.380	-9.661E-05	1.034E-03				
9208.400	1.838	4.087	-653483.521	-9.843E-05	1.052E-03				
9215.800	2.032	4.087	-653469.727	-7.777E-05	1.035E-03				
9216.000	-497.680	4.042	-653569.275	-7.960E-05	1.108E-03				
9216.400	-498.022	4.041	-653768.494	-8.446E-05	1.136E-03				
9217.200	-498.093	4.041	-654166.931	-8.932E-05	1.151E-03				
9218.800	-498.129	4.040	-654963.928	-8.749E-05	9.892E-04				
9222.000	-497.959	4.039	-656558.044	-7.899E-05	1.083E-03				
9228.400	-498.059	4.037	-659745.667	-1.045E-04	1.011E-03				
9238.400	-498.076	4.036	-664726.685	-7.716E-05	1.114E-03				
9248.400	-498.032	4.035	-669708.679	-8.263E-05	1.066E-03				
9258.400	-498.137	4.034	-674690.918	-9.053E-05	1.222E-03				
9268.400	-498.346	4.033	-679672.424	-9.357E-05	9.612E-04				
9269.800	-498.234	4.033	-680370.056	-9.722E-05	1.116E-03				
9270.000	1.425	4.078	-680369.751	-8.506E-05	1.088E-03				
9270.400	1.755	4.078	-680369.080	-8.081E-05	1.093E-03				
9271.200	1.677	4.079	-680367.737	-8.506E-05	1.111E-03				
9272.800	1.794	4.079	-680364.807	-9.539E-05	1.102E-03				
9276.000	1.741	4.080	-680358.948	-1.045E-04	1.079E-03				
9282.400	1.857	4.081	-680347.107	-1.021E-04	1.082E-03				
9292.400	1.862	4.082	-680328.491	-9.053E-05	1.108E-03				
9302.400	1.911	4.082	-680309.692	-1.112E-04	1.019E-03				
9312.400	1.828	4.083	-680290.894	-8.446E-05	1.136E-03				
9322.400	1.833	4.083	-680272.644	-7.899E-05	1.074E-03				
9332.400	1.838	4.083	-680254.333	-9.357E-05	1.068E-03				
9342.400	1.935	4.083	-680235.901	-9.053E-05	1.091E-03				
9352.400	1.770	4.084	-680218.079	-9.235E-05	1.034E-03				
9362.400	1.925	4.084	-680200.195	-6.197E-05	1.030E-03				
9372.400	1.833	4.084	-680181.946	-9.175E-05	1.123E-03				
9382.400	1.862	4.084	-680163.818	-9.661E-05	9.770E-04				
9389.800	1.852	4.084	-680150.085	-8.263E-05	9.995E-04				
9390.000	1249.770	4.196	-679900.146	-8.810E-05	1.082E-03				
9390.400	1251.126	4.197	-679399.780	-9.479E-05	1.057E-03				
9391.200	1251.272	4.199	-678398.804	-9.114E-05	1.035E-03				
9392.800	1251.515	4.201	-676396.484	-8.385E-05	9.825E-04				
9395.400	1251.617	4.203	-673142.456	-7.716E-05	1.060E-03				
9398.600	1251.472	4.205	-669137.634	-1.015E-04	1.007E-03				
9402.600	1251.593	4.207	-664131.409	-8.749E-05	1.041E-03				
9407.600	1251.574	4.209	-657873.291	-9.782E-05	1.086E-03				
9411.400	1251.700	4.210	-653116.882	-8.506E-05	1.063E-03				
9411.600	3.068	4.098	-653116.272	-8.142E-05	1.068E-03				
9412.000	2.159	4.097	-653115.356	-9.965E-05	1.024E-03				
9412.800	2.008	4.096	-653113.708	-7.716E-05	1.069E-03				
9414.400	1.794	4.094	-653110.718	-1.021E-04	1.064E-03				
9417.600	1.998	4.093	-653104.736	-9.296E-05	1.039E-03				
9424.000	1.765	4.091	-653093.079	-9.296E-05	1.109E-03				
9434.000	1.697	4.090	-653074.890	-9.722E-05	1.004E-03				
9444.000	1.833	4.089	-653056.763	-8.081E-05	1.077E-03				
9454.000	1.833	4.088	-653038.940	-9.296E-05	1.109E-03				
9464.000	1.745	4.088	-653021.606	-7.777E-05	1.164E-03				
9474.000	1.716	4.088	-653003.784	-8.506E-05	1.122E-03				
9484.000	1.848	4.087	-652985.779	-1.082E-04	1.025E-03				
9494.000	1.663	4.087	-652967.957	-8.689E-05	1.168E-03				
9504.000	1.604	4.087	-652950.256	-7.595E-05	1.072E-03				
9514.000	1.687	4.087	-652933.655	-8.324E-05	1.077E-03				
9524.000	1.779	4.087	-652916.687	-9.479E-05	1.083E-03				
9531.400	1.658	4.087	-652903.503	-9.235E-05	1.062E-03				
9531.600	-1246.994	3.975	-653152.893	-7.656E-05	1.021E-03				
9532.000	-1247.733	3.973	-653651.978	-7.352E-05	1.128E-03				
9532.800	-1248.063	3.972	-654650.452	-8.081E-05	1.077E-03				
9534.400	-1248.238	3.970	-656647.522	-7.230E-05	1.068E-03				
9536.800	-1248.357	3.968	-659643.188	-9.479E-05	1.195E-03				
9540.000	-1248.406	3.966	-663637.451	-8.506E-05	1.041E-03				
9544.200	-1248.073	3.964	-668879.944	-8.567E-05	1.060E-03				
9549.400	-1248.216	3.962	-675370.605	-7.534E-05	1.144E-03				
9553.000	-1248.250	3.961	-679864.136	-8.446E-05	1.105E-03				
9553.200	0.851	4.073	-679863.953	-8.689E-05	1.024E-03				
9553.600	1.517	4.074	-679863.342	-9.600E-05	1.013E-03				
9554.400	1.823	4.075	-679862.000	-9.782E-05	1.101E-03				
9556.000	1.784	4.076	-679859.192	-9.904E-05	1.080E-03				
9559.200	1.799	4.078	-679853.577	-9.600E-05	1.067E-03				
9565.600	1.648	4.080	-679842.468	-8.385E-05	1.109E-03				
9575.600	1.886	4.081	-679824.585	-9.235E-05	9.971E-04				
9585.600	1.891	4.082	-679806.213	-8.932E-05	1.109E-03				
9595.600	1.726	4.083	-679787.964	-9.661E-05	1.060E-03				
9605.600	1.731	4.083	-679770.020	-8.628E-05	1.124E-03				
9615.600	1.736	4.083	-679752.991	-9.296E-05	1.066E-03				
9625.600	1.600	4.083	-679735.901	-8.992E-05	1.025E-03				
9635.600	1.687	4.084	-679718.628	-9.418E-05	1.024E-03				
9645.600	1.716	4.084	-679701.599	-8.324E-05	1.130E-03				
9655.600	1.760	4.084	-679684.265	-1.057E-04	1.123E-03				
9665.600	1.532	4.084	-679666.992	-1.094E-04	1.116E-03				
9673.000	1.852	4.084	-679654.175	-9.600E-05	1.101E-03				
9673.200	2497.152	4.309	-679154.724	-1.082E-04	1.044E-03				
9673.600	2500.298	4.311	-678154.724	-8.506E-05	1.069E-03				
9674.200	2500.920	4.313	-676654.297	-1.063E-04	1.129E-03				
9675.000	2501.115	4.316	-674653.503	-8.689E-05	9.910E-04				
9676.000	2501.299	4.318	-672152.283	-9.722E-05	1.170E-03				
9677.200	2501.309	4.320	-669150.696	-9.722E-05	1.095E-03				
9678.600	2501.411	4.322	-665648.621	-9.479E-05	1.110E-03				
9680.200	2501.304	4.324	-661646.362	-9.296E-05	1.083E-03				
9682.000	2501.368	4.326	-657143.799	-9.722E-05	9.746E-04				
9683.800	2501.552	4.328	-652641.113	-9.904E-05	1.024E-03				
9684.000	3.846	4.103	-652640.320	-1.039E-04	1.143E-03				
9684.400	2.392	4.101	-652639.282	-1.106E-04	9.308E-04				
9685.200	1.935	4.099	-652637.634	-9.296E-05	1.099E-03				
9686.600	1.838	4.097	-652634.949	-1.094E-04	1.071E-03				
9688.200	1.697	4.096	-652632.080	-8.689E-05	1.069E-03				
9691.400	1.468	4.094	-652626.526	-1.027E-04	1.137E-03				
9697.200	1.711	4.092	-652616.272	-8.871E-05	1.015E-03				
9703.600	1.814	4.091	-652604.919	-9.418E-05	1.112E-03				
9713.600	1.629	4.089	-652587.463	-1.021E-04	1.081E-03				
9723.600	1.673	4.089	-652571.167	-9.418E-05	1.080E-03				
9733.600	1.692	4.088	-652554.016	-9.235E-05	1.043E-03				
9743.600	1.629	4.088	-652537.537	-1.088E-04	1.040E-03				
9753.600	1.721	4.088	-652521.667	-9.722E-05	1.085E-03				
9763.600	1.507	4.088	-652505.859	-9.235E-05	9.272E-04				
9773.600	1.668	4.087	-652488.892	-8.567E-05	1.118E-03				
9783.600	1.716	4.087	-652471.619	-9.600E-05	1.061E-03				
9793.600	1.682	4.087	-652454.773	-1.069E-04	1.068E-03				
9803.600	1.765	4.087	-652437.500	-8.992E-05	1.154E-03				
9803.800	1.716	4.087	-652437.134	-8.810E-05	1.000E-03				
9804.000	-2495.458	3.862	-652936.218	-7.170E-05	1.161E-03				
9804.400	-2497.356	3.860	-653935.059	-8.385E-05	1.109E-03				
9805.000	-2497.726	3.857	-655433.716	-8.020E-05	9.606E-04				
9805.800	-2497.959	3.855	-657432.129	-8.324E-05	1.053E-03				
9806.800	-2498.137	3.853	-659930.176	-8.749E-05	9.363E-04				
9808.000	-2498.081	3.851	-662927.795	-1.069E-04	1.069E-03				
9809.400	-2498.015	3.849	-666425.171	-9.296E-05	9.734E-04				
9811.000	-2498.096	3.847	-670422.180	-8.324E-05	1.172E-03				
9812.800	-2497.984	3.844	-674918.823	-8.385E-05	1.084E-03				
9814.600	-2498.171	3.843	-679415.466	-8.142E-05	1.187E-03				
9814.800	-0.491	4.068	-679415.588	-9.843E-05	9.503E-04				
9815.200	1.099	4.070	-679415.161	-1.003E-04	1.074E-03				
9816.000	1.405	4.072	-679414.124	-9.539E-05	1.142E-03				
9817.400	1.444	4.074	-679411.987	-8.871E-05	1.080E-03				
9819.000	1.687	4.075	-679409.424	-9.296E-05	1.095E-03				
9822.200	1.585	4.077	-679404.358	-9.965E-05	1.047E-03				
9828.000	1.950	4.079	-679394.226	-9.296E-05	1.010E-03				
9834.400	1.648	4.081	-679383.240	-1.015E-04	1.074E-03				
9844.400	1.877	4.082	-679365.784	-8.932E-05	1.039E-03				
9854.400	1.663	4.083	-679347.473	-8.142E-05	1.014E-03				
9864.400	1.775	4.083	-679329.224	-8.992E-05	1.009E-03				
9874.400	1.789	4.083	-679311.035	-9.661E-05	1.101E-03				
9884.400	1.882	4.084	-679292.664	-8.932E-05	1.048E-03				
9894.400	1.775	4.084	-679274.048	-9.296E-05	1.073E-03				
9904.400	1.804	4.084	-679255.554	-9.479E-05	9.545E-04				
9914.400	1.658	4.084	-679237.366	-9.296E-05	1.148E-03				
9924.400	2.018	4.084	-679218.689	-9.235E-05	1.050E-03				
9934.400	1.989	4.084	-679199.524	-9.418E-05	1.096E-03				
9934.600	1.804	4.084	-679199.158	-1.057E-04	1.160E-03				
9934.800	4975.780	4.534	-678203.979	-8.749E-05	1.012E-03				
9935.200	4978.999	4.533	-676212.402	-9.661E-05	1.115E-03				
9935.800	4977.934	4.536	-673225.464	-1.033E-04	1.109E-03				
9936.400	4977.006	4.538	-670239.075	-1.045E-04	1.075E-03				
9937.000	4976.515	4.541	-667253.113	-1.057E-04	1.044E-03				
9937.600	4976.150	4.543	-664267.334	-1.009E-04	1.068E-03				
9938.200	4976.014	4.545	-661281.799	-9.114E-05	1.006E-03				
9939.000	4975.780	4.547	-657301.086	-1.112E-04	9.946E-04				
9939.800	4975.591	4.550	-653320.618	-1.082E-04	1.040E-03				
9940.000	4975.377	4.550	-652325.562	-1.069E-04	1.183E-03				
9940.200	6.223	4.110	-652324.341	-8.203E-05	1.092E-03				
9940.600	3.092	4.106	-652322.998	-9.843E-05	1.017E-03				
9941.200	2.577	4.104	-652321.411	-8.628E-05	1.075E-03				
9942.000	2.314	4.101	-652319.458	-1.009E-04	9.977E-04				
9943.200	2.217	4.099	-652316.772	-9.235E-05	1.110E-03				
9944.800	2.095	4.097	-652313.477	-8.446E-05	1.082E-03				
9947.400	1.964	4.095	-652308.289	-7.170E-05	1.027E-03				
9950.600	1.872	4.094	-652302.246	-9.235E-05	9.873E-04				
9957.000	1.799	4.092	-652290.344	-8.506E-05	1.102E-03				
9967.000	1.901	4.090	-652272.095	-9.175E-05	1.177E-03				
9977.000	1.799	4.089	-652253.845	-8.020E-05	1.047E-03				
9987.000	1.673	4.089	-652235.779	-8.324E-05	1.092E-03				
9997.000	1.882	4.088	-652217.285	-8.142E-05	1.150E-03				
10007.000	1.833	4.088	-652198.975	-7.534E-05	1.117E-03				
10017.000	2.008	4.088	-652180.237	-1.112E-04	1.061E-03				
10027.000	1.779	4.088	-652162.048	-8.081E-05	9.740E-04				
10037.000	1.843	4.088	-652144.287	-1.027E-04	1.079E-03				
10047.000	1.828	4.087	-652126.587	-1.009E-04	1.114E-03				
10057.000	1.804	4.087	-652108.154	-1.021E-04	1.134E-03				
10060.000	1.935	4.087	-652102.478	-9.782E-05	1.075E-03				
10060.200	-4960.706	3.648	-653094.604	-7.716E-05	1.058E-03				
10060.600	-4962.177	3.647	-655079.468	-9.235E-05	1.184E-03				
10061.000	-4961.015	3.645	-657063.965	-8.263E-05	1.104E-03				
10061.400	-4960.400	3.643	-659048.157	-8.324E-05	1.061E-03				
10061.800	-4959.631	3.641	-661032.104	-6.258E-05	1.154E-03				
10062.400	-4958.944	3.638	-664007.568	-6.805E-05	1.205E-03				
10063.000	-4958.032	3.636	-666982.483	-6.744E-05	1.126E-03				
10063.600	-4957.356	3.633	-669957.031	-6.501E-05	1.116E-03				
10064.400	-4956.705	3.631	-673922.546	-6.258E-05	1.130E-03				
10065.200	-4955.808	3.628	-677887.451	-6.684E-05	1.171E-03				
10065.400	-4955.693	3.628	-678878.601	-7.960E-05	1.019E-03				
10065.600	-2.314	4.062	-678879.089	-9.600E-05	1.140E-03				
10065.800	-0.053	4.064	-678879.089	-8.810E-05	9.393E-04				
10066.200	1.177	4.066	-678878.723	-1.057E-04	1.060E-03				
10066.800	1.356	4.069	-678877.991	-1.027E-04	1.097E-03				
10067.600	1.522	4.071	-678876.831	-7.534E-05	1.092E-03				
10068.800	1.823	4.073	-678874.939	-9.965E-05	9.819E-04				
10070.400	1.488	4.074	-678872.375	-8.810E-05	1.133E-03				
10073.200	1.643	4.077	-678867.554	-8.628E-05	1.152E-03				
10076.400	1.809	4.078	-678862.000	-7.473E-05	1.177E-03				
10082.800	1.711	4.080	-678851.074	-7.716E-05	1.151E-03				
10092.800	1.668	4.081	-678834.106	-1.130E-04	1.116E-03				
10102.800	1.799	4.082	-678816.040	-8.749E-05	1.127E-03				
10112.800	1.954	4.083	-678797.974	-9.600E-05	1.024E-03				
10122.800	1.784	4.083	-678780.273	-1.039E-04	1.122E-03				
10132.800	1.882	4.084	-678762.268	-1.124E-04	1.024E-03				
10142.800	1.736	4.084	-678743.652	-9.539E-05	9.685E-04				
10152.800	1.770	4.084	-678725.281	-1.069E-04	1.102E-03				
10162.800	1.925	4.084	-678706.726	-9.904E-05	1.051E-03				
10172.800	1.818	4.084	-678688.477	-9.296E-05	1.108E-03				
10182.800	1.770	4.084	-678669.983	-9.539E-05	9.752E-04				
10185.400	1.828	4.084	-678665.283	-9.661E-05	1.106E-03				
